File: cffp/char_LF_24_06_10again.csv
#FILE:                       ,char_LF_24_06_10again.dsu
#FORMAT:                     ,NETZSCH5
#IDENTITY:                   ,char LF
#DECIMAL:                    ,POINT
#SEPARATOR:                  ,COMMA
#MTYPE:                      ,DTA
#MSUBTYPE:                   ,
#INSTRUMENT:                 ,NETZSCH STA 449 C
#PROJECT:                    ,Torrefaction
#DATE/TIME:                  ,24/06/2010 16:20:36
#CORR. FILE:                 ,char_GF_23_06_10.bsu
#LABORATORY:                 ,Sustainable Research Energ
#OPERATOR:                   ,EMF
#REMARK:                     ,
#SAMPLE:                     ,nonisoth oxid with init drying
#SAMPLE MASS /mg:            ,9.950
#MATERIAL:                   ,Alumina
#REFERENCE:                  ,Alumina
#REFERENCE MASS /mg:         ,0.000
#TYPE OF CRUCIBLE:           ,DTA/TG crucible Al2O3
#SAMPLE CRUCIBLE MASS /mg:   ,0.000
#REFERENCE CRUCIBLE MASS /mg:,0.000
#CORR. CODE:                 ,020
#EXO:                        ,-1
#RANGE:                      ,30.0....900.0/0.0....10.0K/min
#SEGMENT:                    ,S1-4/4

##Temp./øC,Time/min,DTA/(mW/mg),Segment
 34.57100,0.0000e+000,-1.1095e-002,1
 34.54400,    0.35000,-1.8032e-002,1
 34.54200,    0.70000, 6.9356e-003,1
 34.63000,    1.05000,-5.6846e-002,1
 35.23700,    1.40000,    -0.38978,1
 36.79000,    1.75000,    -0.91332,1
 39.25700,    2.10000,    -1.48302,1
 42.52300,    2.45000,    -2.03314,1
 46.37400,    2.80000,    -2.49642,1
 50.63200,    3.15000,    -2.84513,1
 55.12700,    3.50000,    -3.08011,1
 59.74700,    3.85000,    -3.21907,1
 64.43700,    4.20000,    -3.28425,1
 69.08300,    4.55000,    -3.29964,1
 73.64800,    4.90000,    -3.27703,1
 78.10900,    5.25000,    -3.23728,1
 82.49500,    5.60000,    -3.18612,1
 86.81500,    5.95000,    -3.13097,1
 91.04100,    6.30000,    -3.07341,1
 95.17800,    6.65000,    -3.02285,1
 99.25300,    7.00000,    -2.98266,1
103.127,    7.35000,    -2.87571,2
106.685,    7.70000,    -2.63816,2
109.641,    8.05000,    -2.28465,2
111.945,    8.40000,    -1.90542,2
113.614,    8.75000,    -1.52405,2
114.736,    9.10000,    -1.17832,2
115.384,    9.45000,    -0.87277,2
115.62,    9.80000,    -0.60033,2
115.513,   10.15000,    -0.36894,2
115.14,   10.50000,    -0.19001,2
114.537,   10.85000,-3.4460e-002,2
113.751,   11.20000,     0.10180,2
112.82,   11.55000,     0.20536,2
111.768,   11.90000,     0.29925,2
110.627,   12.25000,     0.37173,2
109.42,   12.60000,     0.43917,2
108.143,   12.95000,     0.49761,2
106.819,   13.30000,     0.53010,2
105.479,   13.65000,     0.56498,2
104.117,   14.00000,     0.58530,2
102.716,   14.35000,     0.60294,2
101.329,   14.70000,     0.62479,2
 99.93200,   15.05000,     0.63471,2
 98.53200,   15.40000,     0.65294,2
 97.25200,   15.75000,     0.60404,2
 96.21700,   16.10000,     0.48046,2
 95.56100,   16.45000,     0.29181,2
 95.27500,   16.80000,     0.10398,2
 95.28900,   17.15000,-8.6295e-002,2
 95.51300,   17.50000,    -0.23578,2
 95.89000,   17.85000,    -0.34945,2
 96.31900,   18.20000,    -0.40572,2
 96.78200,   18.55000,    -0.43692,2
 97.21700,   18.90000,    -0.45155,2
 97.60600,   19.25000,    -0.44050,2
 97.95800,   19.60000,    -0.42234,2
 98.25100,   19.95000,    -0.39512,2
 98.49800,   20.30000,    -0.37522,2
 98.71200,   20.65000,    -0.34926,2
 98.89200,   21.00000,    -0.33159,2
 99.04000,   21.35000,    -0.30376,2
 99.16800,   21.70000,    -0.29950,2
 99.28800,   22.05000,    -0.29117,3
 99.38800,   22.40000,    -0.27879,3
 99.45900,   22.75000,    -0.28891,3
 99.54100,   23.10000,    -0.30208,3
 99.58700,   23.45000,    -0.31630,3
 99.63200,   23.80000,    -0.31216,3
 99.67400,   24.15000,    -0.30700,3
 99.71400,   24.50000,    -0.29777,3
 99.75800,   24.85000,    -0.29058,3
 99.79400,   25.20000,    -0.28339,3
 99.83300,   25.55000,    -0.27723,3
 99.86900,   25.90000,    -0.27005,3
 99.89000,   26.25000,    -0.26392,3
 99.91000,   26.60000,    -0.26389,3
 99.93500,   26.95000,    -0.26081,3
 99.96100,   27.30000,    -0.27096,4
100.228,   27.65000,    -0.43243,4
101.199,   28.00000,    -0.85818,4
103.047,   28.35000,    -1.44137,4
105.73,   28.70000,    -2.09354,4
109.124,   29.05000,    -2.70882,4
113.05,   29.40000,    -3.22581,4
117.343,   29.75000,    -3.61974,4
121.863,   30.10000,    -3.90100,4
126.482,   30.45000,    -4.06874,4
131.124,   30.80000,    -4.16238,4
135.705,   31.15000,    -4.18126,4
140.22,   31.50000,    -4.16116,4
144.628,   31.85000,    -4.12029,4
148.907,   32.20000,    -4.07591,4
153.072,   32.55000,    -4.02107,4
157.134,   32.90000,    -3.97983,4
161.115,   33.25000,    -3.94479,4
165.015,   33.60000,    -3.91568,4
168.846,   33.95000,    -3.91145,4
172.629,   34.30000,    -3.91477,4
176.378,   34.65000,    -3.92893,4
180.111,   35.00000,    -3.93317,4
183.799,   35.35000,    -3.95844,4
187.479,   35.70000,    -3.98675,4
191.127,   36.05000,    -4.01261,4
194.766,   36.40000,    -4.04219,4
198.373,   36.75000,    -4.07287,4
201.978,   37.10000,    -4.11117,4
205.577,   37.45000,    -4.14730,4
209.136,   37.80000,    -4.18993,4
212.688,   38.15000,    -4.23910,4
216.227,   38.50000,    -4.28872,4
219.768,   38.85000,    -4.33731,4
223.299,   39.20000,    -4.38830,4
226.825,   39.55000,    -4.43709,4
230.338,   39.90000,    -4.49464,4
233.838,   40.25000,    -4.54690,4
237.352,   40.60000,    -4.60239,4
240.844,   40.95000,    -4.66397,4
244.337,   41.30000,    -4.72265,4
247.828,   41.65000,    -4.79485,4
251.317,   42.00000,    -4.85752,4
254.799,   42.35000,    -4.92520,4
258.286,   42.70000,    -4.99469,4
261.768,   43.05000,    -5.06261,4
265.245,   43.40000,    -5.13882,4
268.72,   43.75000,    -5.20822,4
272.198,   44.10000,    -5.29587,4
275.665,   44.45000,    -5.37008,4
279.13,   44.80000,    -5.45558,4
282.598,   45.15000,    -5.55039,4
286.052,   45.50000,    -5.64031,4
289.514,   45.85000,    -5.73931,4
292.981,   46.20000,    -5.83647,4
296.455,   46.55000,    -5.94360,4
299.921,   46.90000,    -6.05962,4
303.379,   47.25000,    -6.17596,4
306.853,   47.60000,    -6.30017,4
310.32,   47.95000,    -6.42929,4
313.79,   48.30000,    -6.56468,4
317.264,   48.65000,    -6.70673,4
320.736,   49.00000,    -6.85697,4
324.205,   49.35000,    -7.02088,4
327.673,   49.70000,    -7.20053,4
331.151,   50.05000,    -7.39171,4
334.623,   50.40000,    -7.59591,4
338.088,   50.75000,    -7.81737,4
341.563,   51.10000,    -8.05949,4
345.032,   51.45000,    -8.31493,4
348.493,   51.80000,    -8.58114,4
351.988,   52.15000,    -8.84110,4
355.468,   52.50000,    -9.09048,4
358.929,   52.85000,    -9.32723,4
362.394,   53.20000,    -9.56263,4
365.866,   53.55000,    -9.77751,4
369.33,   53.90000,    -9.98509,4
372.795,   54.25000,   -10.19331,4
376.275,   54.60000,   -10.39511,4
379.733,   54.95000,   -10.60131,4
383.209,   55.30000,   -10.81374,4
386.685,   55.65000,   -11.03045,4
390.15,   56.00000,   -11.26063,4
393.626,   56.35000,   -11.51770,4
397.102,   56.70000,   -11.78453,4
400.578,   57.05000,   -12.06190,4
404.064,   57.40000,   -12.36933,4
407.528,   57.75000,   -12.68214,4
411.022,   58.10000,   -13.02883,4
414.495,   58.45000,   -13.40500,4
417.977,   58.80000,   -13.80041,4
421.461,   59.15000,   -14.19759,4
424.937,   59.50000,   -14.64824,4
428.427,   59.85000,   -15.10565,4
431.899,   60.20000,   -15.59806,4
435.386,   60.55000,   -16.08344,4
438.868,   60.90000,   -16.57394,4
442.358,   61.25000,   -17.07680,4
445.833,   61.60000,   -17.53418,4
449.329,   61.95000,   -17.99142,4
452.792,   62.30000,   -18.43914,4
456.276,   62.65000,   -18.84799,4
459.755,   63.00000,   -19.23526,4
463.237,   63.35000,   -19.58503,4
466.7,   63.70000,   -19.91100,4
470.188,   64.05000,   -20.19483,4
473.662,   64.40000,   -20.45789,4
477.136,   64.75000,   -20.70150,4
480.602,   65.10000,   -20.89021,4
484.079,   65.45000,   -21.15336,4
487.56,   65.80000,   -21.43849,4
491.035,   66.15000,   -21.69461,4
494.517,   66.50000,   -21.91472,4
497.99,   66.85000,   -22.18225,4
501.477,   67.20000,   -22.46577,4
504.951,   67.55000,   -22.79678,4
508.438,   67.90000,   -23.14434,4
511.926,   68.25000,   -23.49526,4
515.405,   68.60000,   -23.82883,4
518.894,   68.95000,   -24.16683,4
522.38,   69.30000,   -24.50190,4
525.878,   69.65000,   -24.80831,4
529.356,   70.00000,   -25.07025,4
532.848,   70.35000,   -25.35503,4
536.332,   70.70000,   -25.63474,4
539.803,   71.05000,   -25.82707,4
543.291,   71.40000,   -25.95594,4
546.773,   71.75000,   -26.10941,4
550.252,   72.10000,   -26.27841,4
553.732,   72.45000,   -26.41858,4
557.218,   72.80000,   -26.50008,4
560.686,   73.15000,   -26.53004,4
564.167,   73.50000,   -26.46095,4
567.645,   73.85000,   -26.34576,4
571.129,   74.20000,   -26.15639,4
574.6,   74.55000,   -25.74900,4
578.075,   74.90000,   -24.99217,4
581.525,   75.25000,   -23.48687,4
584.958,   75.60000,   -20.34515,4
588.328,   75.95000,   -12.88442,4
591.622,   76.30000,    -8.62596,4
594.991,   76.65000,    -7.03639,4
598.425,   77.00000,    -6.37599,4
601.922,   77.35000,    -6.07499,4
605.453,   77.70000,    -5.93279,4
609.004,   78.05000,    -5.87338,4
612.541,   78.40000,    -5.85994,4
616.06,   78.75000,    -5.86749,4
619.6,   79.10000,    -5.88507,4
623.129,   79.45000,    -5.89675,4
626.642,   79.80000,    -5.90861,4
630.173,   80.15000,    -5.90802,4
633.687,   80.50000,    -5.90037,4
637.193,   80.85000,    -5.87402,4
640.711,   81.20000,    -5.83425,4
644.225,   81.55000,    -5.75732,4
647.743,   81.90000,    -5.64866,4
651.241,   82.25000,    -5.49492,4
654.738,   82.60000,    -5.29375,4
658.249,   82.95000,    -5.03626,4
661.743,   83.30000,    -4.73333,4
665.244,   83.65000,    -4.43255,4
668.753,   84.00000,    -4.15296,4
672.235,   84.35000,    -3.93998,4
675.739,   84.70000,    -3.79017,4
679.245,   85.05000,    -3.67696,4
682.752,   85.40000,    -3.60659,4
686.281,   85.75000,    -3.54831,4
689.776,   86.10000,    -3.51690,4
693.28,   86.45000,    -3.49321,4
696.783,   86.80000,    -3.47343,4
700.291,   87.15000,    -3.46058,4
703.8,   87.50000,    -3.45180,4
707.3,   87.85000,    -3.43816,4
710.809,   88.20000,    -3.42661,4
714.315,   88.55000,    -3.41124,4
717.807,   88.90000,    -3.39977,4
721.312,   89.25000,    -3.38653,4
724.823,   89.60000,    -3.37232,4
728.312,   89.95000,    -3.35126,4
731.819,   90.30000,    -3.31880,4
735.309,   90.65000,    -3.28328,4
738.805,   91.00000,    -3.24177,4
742.305,   91.35000,    -3.19130,4
745.812,   91.70000,    -3.13068,4
749.313,   92.05000,    -3.07950,4
752.817,   92.40000,    -3.01571,4
756.313,   92.75000,    -2.95320,4
759.822,   93.10000,    -2.89379,4
763.321,   93.45000,    -2.83962,4
766.826,   93.80000,    -2.78754,4
770.329,   94.15000,    -2.73127,4
773.824,   94.50000,    -2.68098,4
777.329,   94.85000,    -2.63982,4
780.813,   95.20000,    -2.61247,4
784.345,   95.55000,    -2.51267,4
787.852,   95.90000,    -2.51132,4
791.351,   96.25000,    -2.48782,4
794.859,   96.60000,    -2.45070,4
798.347,   96.95000,    -2.42197,4
801.845,   97.30000,    -2.40023,4
801.941,   97.31000,    -2.39840,4