File: cffp/char_LF_24_06_10.csv
#FILE:                       ,char_LF_24_06_10.dsu
#FORMAT:                     ,NETZSCH5
#IDENTITY:                   ,char LF
#DECIMAL:                    ,POINT
#SEPARATOR:                  ,COMMA
#MTYPE:                      ,DTA
#MSUBTYPE:                   ,
#INSTRUMENT:                 ,NETZSCH STA 449 C
#PROJECT:                    ,Torrefaction
#DATE/TIME:                  ,24/06/2010 09:05:29
#CORR. FILE:                 ,char_GF_23_06_10.bsu
#LABORATORY:                 ,Sustainable Research Energ
#OPERATOR:                   ,EMF
#REMARK:                     ,
#SAMPLE:                     ,nonisoth oxid with init drying
#SAMPLE MASS /mg:            ,9.780
#MATERIAL:                   ,Alumina
#REFERENCE:                  ,Alumina
#REFERENCE MASS /mg:         ,0.000
#TYPE OF CRUCIBLE:           ,DTA/TG crucible Al2O3
#SAMPLE CRUCIBLE MASS /mg:   ,0.000
#REFERENCE CRUCIBLE MASS /mg:,0.000
#CORR. CODE:                 ,020
#EXO:                        ,-1
#RANGE:                      ,30.0....900.0/-20.0....10.0K/min
#SEGMENT:                    ,S1-5/5

##Temp./øC,Time/min,DTA/(mW/mg),Mass/%,Sensit./(æV/mW),Segment
 33.73800,0.0000e+000, 5.3847e-002,100,9.0198e-002,1
 33.83100,    0.81000, 6.5152e-002, 99.97955,9.0241e-002,1
 35.80800,    1.62000,    -0.16125, 99.94990,9.1150e-002,1
 42.46300,    2.43000,    -0.30237, 99.95399,9.4264e-002,1
 52.05900,    3.24000,    -0.42282, 99.93967,9.8847e-002,1
 62.71400,    4.05000,    -0.50232, 99.89673,    0.10407,1
 73.33900,    4.86000,    -0.55958, 99.82004,    0.10941,1
 83.47700,    5.67000,    -0.65233, 99.72802,    0.11462,1
 93.20300,    6.48000,    -0.73769, 99.61043,    0.11972,1
102.459,    7.29000,    -0.81094, 99.53272,    0.12467,2
109.945,    8.10000,    -0.54907, 99.42025,    0.12873,2
114.089,    8.91000,    -0.34930, 99.33640,    0.13100,2
115.464,    9.72000,    -0.26096, 99.27914,    0.13175,2
114.959,   10.53000,    -0.20804, 99.23415,    0.13147,2
113.278,   11.34000,    -0.18210, 99.19734,    0.13055,2
110.855,   12.15000,    -0.14243, 99.17178,    0.12922,2
108.038,   12.96000,    -0.11611, 99.17996,    0.12769,2
104.983,   13.77000,    -0.10851, 99.15235,    0.12603,2
101.81,   14.58000,-9.6645e-002, 99.16155,    0.12431,2
 98.62100,   15.39000,-8.6523e-002, 99.15542,    0.12261,2
 96.02200,   16.20000,    -0.15499, 99.13395,    0.12122,2
 95.26300,   17.01000,    -0.19148, 99.13190,    0.12082,2
 95.84600,   17.82000,    -0.18149, 99.13599,    0.12113,2
 96.86600,   18.63000,    -0.15862, 99.14213,    0.12167,2
 97.76400,   19.44000,    -0.14858, 99.13190,    0.12215,2
 98.43200,   20.25000,    -0.15754, 99.12577,    0.12251,2
 98.88600,   21.06000,    -0.15619, 99.12986,    0.12275,2
 99.19500,   21.87000,    -0.15805, 99.12270,    0.12292,2
 99.41200,   22.68000,    -0.16414, 99.26483,    0.12303,3
 99.55700,   23.49000,    -0.20556, 99.12577,    0.12311,3
 99.66800,   24.30000,    -0.22310, 98.94172,    0.12317,3
 99.76900,   25.11000,    -0.20641, 98.92229,    0.12322,3
 99.84400,   25.92000,    -0.18975, 98.90695,    0.12326,3
 99.91100,   26.73000,    -0.18659, 98.90900,    0.12330,3
100.067,   27.54000,    -0.26933, 98.96524,    0.12338,4
103.043,   28.35000,    -0.78845, 98.99386,    0.12498,4
110.317,   29.16000,    -1.33928, 99.04397,    0.12893,4
120.212,   29.97000,    -1.67121, 99.05521,    0.13437,4
130.938,   30.78000,    -1.84030, 99.05215,    0.14036,4
141.432,   31.59000,    -1.94297, 99.03988,    0.14630,4
151.358,   32.40000,    -2.02932, 98.98773,    0.15198,4
160.717,   33.21000,    -2.14647, 98.97444,    0.15738,4
169.654,   34.02000,    -2.27682, 98.92127,    0.16257,4
178.33,   34.83000,    -2.43293, 98.87730,    0.16764,4
186.863,   35.64000,    -2.58236, 98.81800,    0.17264,4
195.303,   36.45000,    -2.74351, 98.78732,    0.17759,4
203.65,   37.26000,    -2.90578, 98.77403,    0.18250,4
211.897,   38.07000,    -3.07084, 98.76278,    0.18734,4
220.074,   38.88000,    -3.24108, 98.74847,    0.19213,4
228.217,   39.69000,    -3.41213, 98.73926,    0.19688,4
236.32,   40.50000,    -3.59686, 98.73824,    0.20159,4
244.408,   41.31000,    -3.78015, 98.71881,    0.20625,4
252.481,   42.12000,    -3.97482, 98.72290,    0.21088,4
260.542,   42.93000,    -4.16812, 98.68303,    0.21545,4
268.594,   43.74000,    -4.37365, 98.68098,    0.21996,4
276.619,   44.55000,    -4.59517, 98.64928,    0.22441,4
284.638,   45.36000,    -4.82681, 98.62270,    0.22878,4
292.669,   46.17000,    -5.07855, 98.57873,    0.23310,4
300.692,   46.98000,    -5.34882, 98.52045,    0.23733,4
308.723,   47.79000,    -5.65752, 98.43354,    0.24148,4
316.765,   48.60000,    -5.99376, 98.34151,    0.24555,4
324.807,   49.41000,    -6.38667, 98.19734,    0.24951,4
332.824,   50.22000,    -6.84233, 98.00818,    0.25337,4
340.859,   51.03000,    -7.39020, 97.72802,    0.25712,4
348.904,   51.84000,    -8.00322, 97.35685,    0.26076,4
356.94,   52.65000,    -8.62273, 96.91411,    0.26427,4
364.972,   53.46000,    -9.19138, 96.37935,    0.26766,4
373.022,   54.27000,    -9.69759, 95.77096,    0.27091,4
381.061,   55.08000,   -10.18644, 95.07975,    0.27402,4
389.091,   55.89000,   -10.70282, 94.27812,    0.27698,4
397.134,   56.70000,   -11.29681, 93.38241,    0.27979,4
405.17,   57.51000,   -11.98609, 92.33640,    0.28245,4
413.223,   58.32000,   -12.79680, 91.13088,    0.28495,4
421.267,   59.13000,   -13.74017, 89.63599,    0.28729,4
429.327,   59.94000,   -14.80651, 87.99489,    0.28945,4
437.391,   60.75000,   -15.96508, 86.00307,    0.29145,4
445.451,   61.56000,   -17.11698, 83.58896,    0.29327,4
453.495,   62.37000,   -18.20494, 80.94683,    0.29490,4
461.562,   63.18000,   -19.13383, 78.00102,    0.29635,4
469.606,   63.99000,   -19.86591, 74.87219,    0.29762,4
477.657,   64.80000,   -20.47702, 71.58998,    0.29870,4
485.693,   65.61000,   -21.02938, 68.10941,    0.29959,4
493.742,   66.42000,   -21.61845, 64.53374,    0.30028,4
501.797,   67.23000,   -22.30604, 60.65133,    0.30079,4
509.855,   68.04000,   -23.04720, 56.51022,    0.30111,4
517.925,   68.85000,   -23.76516, 52.13497,    0.30123,4
525.981,   69.66000,   -24.55219, 47.46626,    0.30116,4
534.036,   70.47000,   -25.16765, 42.54294,    0.30089,4
542.103,   71.28000,   -25.70248, 37.43149,    0.30043,4
550.153,   72.09000,   -26.09955, 32.22597,    0.29979,4
558.215,   72.90000,   -26.27196, 26.93353,    0.29895,4
566.269,   73.71000,   -26.19938, 21.64724,    0.29792,4
574.317,   74.52000,   -25.71093, 16.50511,    0.29671,4
582.337,   75.33000,   -24.26550, 11.65235,    0.29532,4
590.168,   76.14000,   -10.37260,  9.48261,    0.29380,4
597.949,   76.95000,    -5.67583,  9.45092,    0.29211,4
606.056,   77.76000,    -4.95595,  9.38548,    0.29018,4
614.252,   78.57000,    -4.82787,  9.28425,    0.28806,4
622.427,   79.38000,    -4.82495,  9.23722,    0.28577,4
630.579,   80.19000,    -4.81116,  9.14315,    0.28332,4
638.707,   81.00000,    -4.74051,  9.06646,    0.28072,4
646.812,   81.81000,    -4.53545,  8.97648,    0.27797,4
654.942,   82.62000,    -4.12476,  8.89059,    0.27507,4
663.042,   83.43000,    -3.47359,  8.73415,    0.27203,4
671.15,   84.24000,    -2.81440,  8.63905,    0.26885,4
679.261,   85.05000,    -2.44713,  8.58385,    0.26553,4
687.365,   85.86000,    -2.27343,  8.56543,    0.26210,4
695.492,   86.67000,    -2.19603,  8.55317,    0.25853,4
703.591,   87.48000,    -2.15944,  8.53783,    0.25486,4
711.702,   88.29000,    -2.10491,  8.48466,    0.25108,4
719.805,   89.10000,    -2.05675,  8.47444,    0.24720,4
727.914,   89.91000,    -1.98057,  8.48262,    0.24322,4
736.023,   90.72000,    -1.87421,  8.44888,    0.23916,4
744.128,   91.53000,    -1.74573,  8.41819,    0.23502,4
752.231,   92.34000,    -1.58712,  8.40797,    0.23080,4
760.335,   93.15000,    -1.43263,  8.37935,    0.22652,4
768.436,   93.96000,    -1.28748,  8.35071,    0.22217,4
776.53,   94.77000,    -1.15265,  8.33742,    0.21778,4
784.656,   95.58000,    -1.02156,  8.29755,    0.21332,4
792.746,   96.39000,    -0.90210,  8.32822,    0.20884,4
800.849,   97.20000,    -0.81635,  8.25562,    0.20432,4
808.968,   98.01000,    -0.74604,  8.26687,    0.19976,4
817.077,   98.82000,    -0.69543,  8.28119,    0.19518,4
825.194,   99.63000,    -0.65452,  8.26891,    0.19059,4
833.308,  100.44,    -0.62672,  8.21574,    0.18599,4
841.422,  101.25,    -0.60530,  8.20961,    0.18138,4
849.518,  102.06,    -0.59861,  8.21268,    0.17679,4
857.631,  102.87,    -0.56633,  8.20143,    0.17220,4
865.738,  103.68,    -0.54062,  8.17791,    0.16762,4
873.843,  104.49,    -0.52593,  8.19529,    0.16307,4
881.943,  105.3,    -0.51677,  8.15644,    0.15854,4
890.063,  106.11,    -0.49373,  8.16768,    0.15403,4
898.179,  106.92,    -0.49910,  8.15644,    0.14955,4
895.374,  107.918,    -0.16833,  8.18200,    0.15110,5
874.781,  108.93,-4.1676e-002,  8.12985,    0.16254,5
852.599,  109.942,-3.0667e-002,  8.20859,    0.17505,5
830.923,  110.955,-3.4112e-002,  8.19325,    0.18734,5
809.487,  111.968,-4.1009e-002,  8.18916,    0.19947,5
788.299,  112.98,-6.8350e-002,  8.08793,    0.21131,5
767.259,  113.993,-7.4000e-002,  8.17485,    0.22281,5
746.371,  115.005,-8.4713e-002,  8.15235,    0.23386,5
725.628,  116.017,-9.5197e-002,  8.20654,    0.24435,5
704.977,  117.03,    -0.10407,  8.14008,    0.25422,5
684.387,  118.043,    -0.11307,  8.17484,    0.26337,5
663.918,  119.055,    -0.12513,  8.14008,    0.27169,5
643.491,  120.067,    -0.13646,  8.16564,    0.27912,5
623.11,  121.08,    -0.14725,  7.65337,    0.28558,5
602.742,  122.093,    -0.15856,  8.17996,    0.29099,5
582.432,  123.105,    -0.15711,  8.23312,    0.29531,5
562.136,  124.118,    -0.16744,  8.17382,    0.29847,5
541.84,  125.13,    -0.17356,  8.17177,    0.30045,5
521.584,  126.142,    -0.18797,  8.14315,    0.30122,5
501.349,  127.155,    -0.19463,  8.15031,    0.30077,5
481.087,  128.167,    -0.20383,  8.19939,    0.29910,5
460.856,  129.18,    -0.21400,  8.17689,    0.29623,5
440.619,  130.192,    -0.22702,  8.22597,    0.29220,5
420.374,  131.205,    -0.23288,  8.19631,    0.28703,5
400.152,  132.218,    -0.24487,  8.20347,    0.28081,5
380.049,  133.23,    -0.24942,  8.18916,    0.27364,5
360.403,  134.242,    -0.25491,  8.19836,    0.26575,5
341.563,  135.255,    -0.25816,  8.21881,    0.25744,5
323.711,  136.268,    -0.26694,  8.22290,    0.24898,5
306.824,  137.28,    -0.26731,  8.18404,    0.24051,5
290.921,  138.292,    -0.27141,  8.16973,    0.23216,5
275.923,  139.305,    -0.25788,  8.19222,    0.22402,5
261.741,  140.317,    -0.25666,  8.21472,    0.21612,5
248.312,  141.33,    -0.24215,  8.19529,    0.20849,5
235.624,  142.343,    -0.22998,  8.21984,    0.20118,5
223.639,  143.355,    -0.22771,  8.24540,    0.19421,5
212.25,  144.367,    -0.21127,  8.23415,    0.18754,5
201.477,  145.38,    -0.20594,  8.26891,    0.18122,5
191.256,  146.393,    -0.19622,  8.21575,    0.17521,5
181.565,  147.405,    -0.18320,  8.24642,    0.16953,5
172.42,  148.417,    -0.17516,  8.24642,    0.16418,5
163.769,  149.43,    -0.16223,  8.24130,    0.15915,5
155.558,  150.442,    -0.15232,  8.24233,    0.15440,5
154.882,  150.53,    -0.15104,  8.24540,    0.15401,5