File: cffp/char_GD_30_06_10_again.csv
#FILE:                       ,char_GD_30_06_10.dsu
#FORMAT:                     ,NETZSCH5
#IDENTITY:                   ,char GD
#DECIMAL:                    ,POINT
#SEPARATOR:                  ,COMMA
#MTYPE:                      ,DTA
#MSUBTYPE:                   ,
#INSTRUMENT:                 ,NETZSCH STA 449 C
#PROJECT:                    ,Torrefaction
#DATE/TIME:                  ,30/06/2010 09:32:44
#CORR. FILE:                 ,char_GF_23_06_10.bsu
#LABORATORY:                 ,Sustainable Research Energ
#OPERATOR:                   ,Xiaomian Baxter
#REMARK:                     ,
#SAMPLE:                     ,nonisoth oxid with init drying
#SAMPLE MASS /mg:            ,10.180
#MATERIAL:                   ,char
#REFERENCE:                  ,Alumina
#REFERENCE MASS /mg:         ,0.000
#TYPE OF CRUCIBLE:           ,DTA/TG crucible Al2O3
#SAMPLE CRUCIBLE MASS /mg:   ,0.000
#REFERENCE CRUCIBLE MASS /mg:,0.000
#CORR. CODE:                 ,020
#EXO:                        ,-1
#RANGE:                      ,30.0....900.0/-20.0....10.0K/min
#SEGMENT:                    ,S1-5/5

##Temp./øC,Time/min,DTA/(mW/mg),Mass/%,Sensit./(æV/mW),Segment
 31.82300,0.0000e+000,     0.14847,100,8.9319e-002,1
 31.95800,    0.81000,     0.12227,100.072,8.9381e-002,1
 35.16300,    1.62000,    -0.36760,100.08,9.0855e-002,1
 42.72000,    2.43000,    -1.02515,100.052,9.4385e-002,1
 52.67400,    3.24000,    -1.48868,100.005,9.9144e-002,1
 63.32800,    4.05000,    -1.71175, 99.91356,    0.10437,1
 73.85500,    4.86000,    -1.80373, 99.77603,    0.10967,1
 83.92100,    5.67000,    -1.87738, 99.63065,    0.11485,1
 93.58200,    6.48000,    -1.94744, 99.48723,    0.11992,1
102.774,    7.29000,    -1.99176, 99.36248,    0.12484,2
110.224,    8.10000,    -1.55584, 99.25344,    0.12888,2
114.289,    8.91000,    -1.02836, 99.17387,    0.13111,2
115.549,    9.72000,    -0.64750, 99.12475,    0.13180,2
114.928,   10.53000,    -0.36522, 99.08350,    0.13146,2
113.09,   11.34000,    -0.18544, 99.06090,    0.13045,2
110.536,   12.15000,-3.9011e-002, 99.04322,    0.12905,2
107.555,   12.96000, 5.4926e-002, 99.05305,    0.12743,2
104.351,   13.77000,     0.10746, 99.05206,    0.12569,2
101.018,   14.58000,     0.15164, 99.04617,    0.12389,2
 97.80200,   15.39000,     0.14071, 99.05010,    0.12217,2
 95.95500,   16.20000,-1.1146e-002, 99.05599,    0.12119,2
 95.85800,   17.01000,    -0.20780, 99.05894,    0.12113,2
 96.66700,   17.82000,    -0.31514, 99.05796,    0.12156,2
 97.59200,   18.63000,    -0.34405, 99.06483,    0.12206,2
 98.33800,   19.44000,    -0.33591, 99.04912,    0.12246,2
 98.87500,   20.25000,    -0.32512, 99.04912,    0.12274,2
 99.20500,   21.06000,    -0.30668, 99.04912,    0.12292,2
 99.44600,   21.87000,    -0.29937, 99.04519,    0.12305,2
 99.61300,   22.68000,    -0.29616, 99.00196,    0.12314,3
 99.71200,   23.49000,    -0.33191, 99.11198,    0.12319,3
 99.79400,   24.30000,    -0.34475, 99.11984,    0.12324,3
 99.86400,   25.11000,    -0.32970, 99.11198,    0.12327,3
 99.93400,   25.92000,    -0.32263, 99.10806,    0.12331,3
 99.95900,   26.73000,    -0.32658, 99.11002,    0.12333,3
100.116,   27.54000,    -0.40695, 99.10904,    0.12341,4
103.114,   28.35000,    -1.22768, 99.08939,    0.12502,4
110.392,   29.16000,    -2.29734, 99.07073,    0.12897,4
120.26,   29.97000,    -3.02955, 99.04813,    0.13440,4
130.944,   30.78000,    -3.38019, 99.02063,    0.14036,4
141.433,   31.59000,    -3.52172, 98.98428,    0.14630,4
151.362,   32.40000,    -3.58966, 98.93320,    0.15198,4
160.71,   33.21000,    -3.67260, 98.89195,    0.15737,4
169.661,   34.02000,    -3.78926, 98.84774,    0.16257,4
178.353,   34.83000,    -3.93822, 98.80550,    0.16765,4
186.899,   35.64000,    -4.08784, 98.77603,    0.17266,4
195.339,   36.45000,    -4.25240, 98.74165,    0.17761,4
203.661,   37.26000,    -4.43048, 98.70530,    0.18250,4
211.909,   38.07000,    -4.61628, 98.68173,    0.18734,4
220.095,   38.88000,    -4.80067, 98.64637,    0.19214,4
228.224,   39.69000,    -4.99244, 98.61690,    0.19688,4
236.343,   40.50000,    -5.18752, 98.58546,    0.20160,4
244.434,   41.31000,    -5.38203, 98.54813,    0.20627,4
252.503,   42.12000,    -5.58908, 98.50786,    0.21089,4
260.571,   42.93000,    -5.80716, 98.47151,    0.21546,4
268.611,   43.74000,    -6.03198, 98.42141,    0.21997,4
276.648,   44.55000,    -6.27511, 98.35363,    0.22442,4
284.667,   45.36000,    -6.52645, 98.27996,    0.22880,4
292.684,   46.17000,    -6.79992, 98.19843,    0.23310,4
300.717,   46.98000,    -7.08569, 98.08251,    0.23734,4
308.754,   47.79000,    -7.39546, 97.96464,    0.24150,4
316.779,   48.60000,    -7.72279, 97.81238,    0.24555,4
324.809,   49.41000,    -8.08991, 97.63163,    0.24951,4
332.85,   50.22000,    -8.47231, 97.41749,    0.25338,4
340.884,   51.03000,    -8.86542, 97.14440,    0.25713,4
348.894,   51.84000,    -9.27246, 96.82122,    0.26076,4
356.926,   52.65000,    -9.66874, 96.46758,    0.26427,4
364.967,   53.46000,   -10.05887, 96.05305,    0.26765,4
372.989,   54.27000,   -10.43930, 95.58939,    0.27090,4
381.024,   55.08000,   -10.79946, 95.10118,    0.27401,4
389.051,   55.89000,   -11.15619, 94.55992,    0.27697,4
397.085,   56.70000,   -11.51454, 93.99411,    0.27978,4
405.135,   57.51000,   -11.88859, 93.37525,    0.28244,4
413.175,   58.32000,   -12.30581, 92.70138,    0.28494,4
421.216,   59.13000,   -12.77820, 91.95580,    0.28727,4
429.277,   59.94000,   -13.30987, 91.11690,    0.28944,4
437.338,   60.75000,   -13.90802, 90.17682,    0.29144,4
445.386,   61.56000,   -14.58356, 89.09430,    0.29325,4
453.455,   62.37000,   -15.33109, 87.86542,    0.29489,4
461.519,   63.18000,   -16.17068, 86.42338,    0.29635,4
469.594,   63.99000,   -17.09965, 84.76817,    0.29762,4
477.659,   64.80000,   -18.11111, 82.85265,    0.29870,4
485.737,   65.61000,   -19.19207, 80.52554,    0.29959,4
493.816,   66.42000,   -20.31719, 77.98232,    0.30029,4
501.89,   67.23000,   -21.44801, 75.08448,    0.30080,4
509.952,   68.04000,   -22.54962, 71.83497,    0.30111,4
518.007,   68.85000,   -23.61481, 68.24558,    0.30123,4
526.057,   69.66000,   -24.56818, 64.32515,    0.30115,4
534.123,   70.47000,   -25.52087, 60.08546,    0.30089,4
542.15,   71.28000,   -26.53859, 55.53733,    0.30043,4
550.204,   72.09000,   -27.58564, 50.64440,    0.29978,4
558.274,   72.90000,   -28.42767, 45.45089,    0.29894,4
566.325,   73.71000,   -28.88174, 40.06582,    0.29791,4
574.372,   74.52000,   -28.93220, 34.64833,    0.29670,4
582.404,   75.33000,   -28.65389, 29.26032,    0.29531,4
590.447,   76.14000,   -28.24347, 24.01277,    0.29374,4
598.474,   76.95000,   -27.64109, 18.92240,    0.29199,4
606.512,   77.76000,   -25.81046, 14.10216,    0.29007,4
614.4,   78.57000,   -12.62723, 11.06288,    0.28802,4
622.08,   79.38000,    -4.60796, 11.00492,    0.28587,4
630.179,   80.19000,    -3.45131, 10.83497,    0.28345,4
638.396,   81.00000,    -3.15561, 10.66994,    0.28082,4
646.6,   81.81000,    -3.02417, 10.58449,    0.27805,4
654.761,   82.62000,    -2.90536, 10.48428,    0.27513,4
662.916,   83.43000,    -2.81389, 10.40276,    0.27208,4
671.061,   84.24000,    -2.72492, 10.36248,    0.26888,4
679.207,   85.05000,    -2.62170, 10.32613,    0.26556,4
687.322,   85.86000,    -2.50062, 10.30354,    0.26212,4
695.447,   86.67000,    -2.38456, 10.30747,    0.25855,4
703.562,   87.48000,    -2.29224, 10.28389,    0.25487,4
711.676,   88.29000,    -2.21772, 10.27407,    0.25109,4
719.791,   89.10000,    -2.16714, 10.26228,    0.24721,4
727.907,   89.91000,    -2.14097, 10.25836,    0.24323,4
736.01,   90.72000,    -2.12499, 10.25540,    0.23917,4
744.118,   91.53000,    -2.12119, 10.22594,    0.23502,4
752.225,   92.34000,    -2.13389, 10.22692,    0.23080,4
760.331,   93.15000,    -2.16558, 10.22790,    0.22652,4
768.439,   93.96000,    -2.18309, 10.19941,    0.22217,4
776.551,   94.77000,    -2.20243, 10.20334,    0.21777,4
784.666,   95.58000,    -2.21502, 10.18763,    0.21331,4
792.756,   96.39000,    -2.22844, 10.21415,    0.20883,4
800.874,   97.20000,    -2.24600, 10.19843,    0.20430,4
808.987,   98.01000,    -2.26771, 10.19352,    0.19975,4
817.096,   98.82000,    -2.28941, 10.16700,    0.19517,4
825.206,   99.63000,    -2.32969, 10.18959,    0.19059,4
833.332,  100.44,    -2.36898, 10.18566,    0.18597,4
841.441,  101.25,    -2.43112, 10.18762,    0.18137,4
849.548,  102.06,    -2.49437, 10.18959,    0.17677,4
857.646,  102.87,    -2.57148, 10.18075,    0.17219,4
865.749,  103.68,    -2.64604, 10.18468,    0.16762,4
873.863,  104.49,    -2.72834, 10.18861,    0.16305,4
881.975,  105.3,    -2.82576, 10.17682,    0.15852,4
890.084,  106.11,    -2.90441, 10.18271,    0.15402,4
898.181,  106.92,    -3.01325, 10.19254,    0.14955,4
895.339,  107.918,    -0.50135, 10.18174,    0.15111,5
874.749,  108.93,     0.41923, 10.20825,    0.16256,5
852.591,  109.942,     0.40544, 10.25345,    0.17505,5
830.934,  110.955,     0.31527, 10.23773,    0.18734,5
809.515,  111.968,     0.23579, 10.21710,    0.19945,5
788.317,  112.98,     0.14354, 10.24067,    0.21130,5
767.284,  113.993, 7.7159e-002, 10.24853,    0.22279,5
746.41,  115.005, 2.6255e-002, 10.26032,    0.23384,5
725.655,  116.017,-2.3619e-002, 10.26916,    0.24434,5
704.99,  117.03,-5.8928e-002, 10.26523,    0.25422,5
684.435,  118.043,-9.7913e-002, 10.27898,    0.26335,5
663.951,  119.055,    -0.13062, 10.30158,    0.27168,5
643.519,  120.067,    -0.15442, 10.28586,    0.27911,5
623.155,  121.08,    -0.17415, 10.33104,    0.28556,5
602.8,  122.093,    -0.18947, 10.34087,    0.29098,5
582.458,  123.105,    -0.19751, 10.33891,    0.29530,5
562.152,  124.118,    -0.20200, 10.34185,    0.29847,5
541.878,  125.13,    -0.21047, 10.40374,    0.30045,5
521.623,  126.142,    -0.21075, 10.31925,    0.30122,5
501.352,  127.155,    -0.21352, 10.38212,    0.30077,5
481.106,  128.167,    -0.19870, 10.41160,    0.29910,5
460.871,  129.18,    -0.18279, 10.41159,    0.29624,5
440.632,  130.192,    -0.16767, 10.43222,    0.29220,5
420.388,  131.205,    -0.14630, 10.43713,    0.28704,5
400.2,  132.218,    -0.11762, 10.45285,    0.28083,5
380.059,  133.23,-8.0322e-002, 10.46169,    0.27364,5
360.321,  134.242,-4.9446e-002, 10.46857,    0.26571,5
341.342,  135.255,-1.8609e-002, 10.47938,    0.25734,5
323.322,  136.268,-4.4419e-003, 10.49018,    0.24879,5
306.315,  137.28, 2.0444e-002, 10.49411,    0.24025,5
290.261,  138.292, 3.9727e-002, 10.50295,    0.23181,5
275.094,  139.305, 6.9203e-002, 10.51474,    0.22357,5
260.76,  140.317, 9.5694e-002, 10.51375,    0.21557,5
247.206,  141.33,     0.12228, 10.66405,    0.20786,5
234.441,  142.343,     0.15739, 10.40864,    0.20050,5
222.219,  143.355,     0.17779, 10.58546,    0.19338,5
210.715,  144.367,     0.20723, 10.55992,    0.18664,5
199.818,  145.38,     0.22617, 10.56483,    0.18024,5
189.459,  146.393,     0.23901, 10.56680,    0.17416,5
179.65,  147.405,     0.26394, 10.57859,    0.16841,5
170.386,  148.417,     0.28174, 10.57859,    0.16300,5
161.608,  149.43,     0.31185, 10.59038,    0.15789,5
153.287,  150.442,     0.32806, 10.59528,    0.15309,5
152.585,  150.53,     0.33375, 10.59332,    0.15268,5