File: cffp/char_NF_24_06_10.csv
#FILE:                       ,char_NF_24_06_10.dsu            ,,,,
#FORMAT:                     ,NETZSCH5                        ,,,,
#IDENTITY:                   ,char NF                         ,,,,
#DECIMAL:                    ,POINT                           ,,,,
#SEPARATOR:                  ,COMMA                           ,,,,
#MTYPE:                      ,DTA                             ,,,,
#MSUBTYPE:                   ,                                ,,,,
#INSTRUMENT:                 ,NETZSCH STA 449 C               ,,,,
#PROJECT:                    ,Torrefaction                    ,,,,
#DATE/TIME:                  ,24/06/2010 19:20:25             ,,,,
#CORR. FILE:                 ,char_GF_23_06_10.bsu            ,,,,
#LABORATORY:                 ,Sustainable Research Energ      ,,,,
#OPERATOR:                   ,EMF                             ,,,,
#REMARK:                     ,                                ,,,,
#SAMPLE:                     ,nonisoth oxid with init drying  ,,,,
#SAMPLE MASS /mg:            ,9.83,,,,
#MATERIAL:                   ,Alumina                         ,,,,
#REFERENCE:                  ,Alumina                         ,,,,
#REFERENCE MASS /mg:         ,0,,,,
#TYPE OF CRUCIBLE:           ,DTA/TG crucible Al2O3           ,,,,
#SAMPLE CRUCIBLE MASS /mg:   ,0,,,,
#REFERENCE CRUCIBLE MASS /mg:,0,,,,
#CORR. CODE:                 ,20,,,,
#EXO:                        ,-1,,,,
#RANGE:                      ,30.0....900.0/-20.0....10.0K/min,,99.3952,,
#SEGMENT:                    ,S1-5/5                          ,,99.381,,
,,,11.1104,,
##Temp./øC,Time/min,DTA/(mW/mg),Mass/%,Sensit./(æV/mW),Segment
36.917,0.00E+00,4.30E-02,100,9.17E-02,1
36.82,0.6,5.97E-02,99.99797,9.16E-02,1
36.762,1.2,1.11E-02,99.93693,9.16E-02,1
37.99,1.8,-0.39873,99.91862,9.22E-02,1
41.997,2.4,-0.86808,99.92269,9.40E-02,1
48.197,3,-1.31504,99.95219,9.70E-02,1
55.642,3.6,-1.60427,99.94303,0.10059,1
63.598,4.2,-1.78137,99.92269,0.10451,1
71.61,4.8,-1.85477,99.90234,0.10853,1
79.38,5.4,-1.90687,99.87487,0.1125,1
86.914,6,-1.92142,99.81078,0.11641,1
94.2,6.6,-1.95418,99.74771,0.12025,1
101.134,7.2,-1.96658,99.68566,0.12396,2
107.334,7.8,-1.71305,99.61241,0.12731,2
111.729,8.4,-1.34219,99.53408,0.1297,2
114.287,9,-1.01066,99.48016,0.1311,2
115.374,9.6,-0.7367,99.43337,0.1317,2
115.347,10.2,-0.53786,99.38454,0.13169,2
114.519,10.8,-0.38953,99.36012,0.13123,2
113.149,11.4,-0.27093,99.35605,0.13048,2
111.378,12,-0.1787,99.34385,0.12951,2
109.36,12.6,-0.10002,99.33876,0.12841,2
107.169,13.2,-3.90E-02,99.34385,0.12722,2
104.883,13.8,8.08E-03,99.33774,0.12598,2
102.521,14.4,3.16E-02,99.33062,0.1247,2
100.15,15,5.98E-02,99.33978,0.12343,2
97.807,15.6,8.22E-02,99.32045,0.12217,2
95.997,16.2,-1.47E-02,99.31943,0.12121,2
95.234,16.8,-0.16316,99.32859,0.1208,2
95.382,17.4,-0.28613,99.32146,0.12088,2
95.998,18,-0.36299,99.32452,0.12121,2
96.774,18.6,-0.3879,99.33876,0.12162,2
97.491,19.2,-0.3846,99.33774,0.122,2
98.076,19.8,-0.3805,99.34995,0.12232,2
98.502,20.4,-0.36838,99.33469,0.12254,2
98.836,21,-0.35437,99.34283,0.12272,2
99.091,21.6,-0.34259,99.34588,0.12286,2
99.283,22.2,-0.34023,99.32757,0.12296,3
99.434,22.8,-0.35448,99.33266,0.12304,3
99.543,23.4,-0.38323,99.39369,0.1231,3
99.628,24,-0.38516,99.41913,0.12315,3
99.703,24.6,-0.37162,99.41607,0.12319,3
99.775,25.2,-0.3715,99.42625,0.12323,3
99.838,25.8,-0.35076,99.412,0.12326,3
99.889,26.4,-0.3579,99.41404,0.12329,3
99.918,27,-0.35992,99.40387,0.1233,3
100.136,27.6,-0.47085,99.40285,0.12342,4
102.176,28.2,-1.01001,99.412,0.12452,4
106.703,28.8,-1.73673,99.40081,0.12696,4
113.158,29.4,-2.35155,99.38962,0.13048,4
120.65,30,-2.76964,99.36114,0.13462,4
128.526,30.6,-2.99592,99.35097,0.13901,4
136.387,31.2,-3.1162,99.33367,0.14344,4
143.997,31.8,-3.16612,99.32045,0.14776,4
151.287,32.4,-3.20632,99.29095,0.15194,4
158.275,33,-3.24824,99.27365,0.15597,4
165.015,33.6,-3.29375,99.23194,0.15987,4
171.562,34.2,-3.36622,99.20142,0.16368,4
177.984,34.8,-3.44802,99.1648,0.16743,4
184.351,35.4,-3.5356,99.15158,0.17116,4
190.614,36,-3.63439,99.11902,0.17484,4
196.862,36.6,-3.73633,99.11699,0.17851,4
203.023,37.2,-3.83523,99.10071,0.18213,4
209.144,37.8,-3.94245,99.09563,0.18572,4
215.223,38.4,-4.05831,99.09054,0.18929,4
221.281,39,-4.17096,99.08342,0.19283,4
227.31,39.6,-4.30099,99.07325,0.19635,4
233.337,40.2,-4.42331,99.06816,0.19986,4
239.342,40.8,-4.55154,99.06918,0.20333,4
245.346,41.4,-4.69126,99.04781,0.20679,4
251.327,42,-4.82292,99.03866,0.21022,4
257.31,42.6,-4.96649,99.03662,0.21361,4
263.266,43.2,-5.1133,99.02645,0.21698,4
269.23,43.8,-5.26385,99.01933,0.22032,4
275.182,44.4,-5.42562,98.98678,0.22362,4
281.132,45,-5.59308,98.97965,0.22688,4
287.065,45.6,-5.77408,98.95219,0.23009,4
293.001,46.2,-5.96307,98.9176,0.23327,4
298.943,46.8,-6.16733,98.86979,0.23641,4
304.892,47.4,-6.39762,98.82096,0.23951,4
310.847,48,-6.6395,98.76094,0.24256,4
316.798,48.6,-6.90585,98.65717,0.24556,4
322.758,49.2,-7.19994,98.54832,0.24852,4
328.698,49.8,-7.53663,98.42421,0.2514,4
334.659,50.4,-7.9142,98.24212,0.25424,4
340.607,51,-8.33124,98.02136,0.257,4
346.554,51.6,-8.77562,97.73652,0.25971,4
352.507,52.2,-9.2099,97.44252,0.26235,4
358.455,52.8,-9.6158,97.06307,0.26492,4
364.396,53.4,-9.9973,96.65514,0.26742,4
370.349,54,-10.36306,96.21872,0.26984,4
376.281,54.6,-10.74243,95.73347,0.27219,4
382.236,55.2,-11.15658,95.17192,0.27446,4
388.187,55.8,-11.5871,94.56765,0.27665,4
394.146,56.4,-12.06082,93.89522,0.27877,4
400.111,57,-12.57819,93.13021,0.2808,4
406.072,57.6,-13.15292,92.29502,0.28274,4
412.023,58.2,-13.78411,91.33571,0.28459,4
417.982,58.8,-14.4866,90.25127,0.28635,4
423.949,59.4,-15.26469,89.02543,0.28803,4
429.919,60,-16.09823,87.64598,0.28961,4
435.899,60.6,-16.96788,86.10071,0.29109,4
441.878,61.2,-17.83941,84.22279,0.29248,4
447.844,61.8,-18.67929,82.3235,0.29377,4
453.815,62.4,-19.43685,80.20651,0.29496,4
459.775,63,-20.09266,77.96338,0.29605,4
465.741,63.6,-20.65993,75.59308,0.29703,4
471.703,64.2,-21.17318,73.1292,0.29792,4
477.656,64.8,-21.62023,70.59817,0.2987,4
483.617,65.4,-22.09124,67.93286,0.29937,4
489.575,66,-22.61337,65.14649,0.29995,4
495.536,66.6,-23.17458,62.23398,0.30041,4
501.504,67.2,-23.76982,59.1882,0.30078,4
507.482,67.8,-24.39537,55.93489,0.30103,4
513.444,68.4,-25.01944,52.5178,0.30119,4
519.434,69,-25.59027,48.9237,0.30123,4
525.408,69.6,-26.11063,45.19634,0.30117,4
531.375,70.2,-26.56413,41.36928,0.301,4
537.345,70.8,-26.93967,37.40793,0.30073,4
543.312,71.4,-27.14721,33.47406,0.30035,4
549.26,72,-27.19802,29.50153,0.29987,4
555.211,72.6,-27.06299,25.5768,0.29928,4
561.177,73.2,-26.69838,21.8179,0.29859,4
567.126,73.8,-26.00746,18.13224,0.2978,4
573.046,74.4,-24.21227,14.67548,0.29691,4
578.914,75,-17.23966,12.11292,0.29594,4
584.599,75.6,-6.27058,11.92879,0.2949,4
590.421,76.2,-3.93551,11.91964,0.29374,4
596.414,76.8,-3.29061,11.87996,0.29246,4
602.495,77.4,-3.03866,11.81485,0.29105,4
608.556,78,-2.90067,11.75178,0.28956,4
614.603,78.6,-2.80274,11.70092,0.28797,4
620.648,79.2,-2.69528,11.65819,0.28628,4
626.68,79.8,-2.54802,11.6002,0.28452,4
632.701,80.4,-2.37129,11.5473,0.28266,4
638.717,81,-2.1843,11.50967,0.28072,4
644.728,81.6,-1.99028,11.40997,0.27869,4
650.75,82.2,-1.75903,11.31943,0.27658,4
656.748,82.8,-1.52834,11.21872,0.2744,4
662.758,83.4,-1.33826,11.12513,0.27214,4
668.763,84,-1.2179,11.08443,0.2698,4
674.776,84.6,-1.1314,11.05087,0.26738,4
680.781,85.2,-1.07961,11.00305,0.2649,4
686.776,85.8,-1.03774,10.96236,0.26235,4
692.793,86.4,-1.00514,10.92676,0.25973,4
698.797,87,-0.9805,10.94913,0.25705,4
704.809,87.6,-0.95657,10.941,0.2543,4
710.811,88.2,-0.93791,10.90539,0.2515,4
716.813,88.8,-0.91595,10.90844,0.24864,4
722.811,89.4,-0.89626,10.87996,0.24574,4
728.824,90,-0.8763,10.86673,0.24277,4
734.822,90.6,-0.85334,10.83825,0.23977,4
740.818,91.2,-0.83264,10.80773,0.23672,4
746.822,91.8,-0.81101,10.79145,0.23362,4
752.829,92.4,-0.79225,10.7884,0.23049,4
758.834,93,-0.77142,10.75178,0.22732,4
764.84,93.6,-0.76317,10.75686,0.22411,4
770.848,94.2,-0.74097,10.75381,0.22087,4
776.856,94.8,-0.7258,10.74364,0.2176,4
782.859,95.4,-0.69482,10.73449,0.21431,4
788.866,96,-0.66657,10.70397,0.21099,4
794.866,96.6,-0.63685,10.74669,0.20766,4
800.865,97.2,-0.60497,10.57883,0.20431,4
806.88,97.8,-0.57969,10.66124,0.20093,4
812.887,98.4,-0.54778,10.65208,0.19755,4
818.892,99,-0.50627,10.66023,0.19416,4
824.904,99.6,-0.4713,10.65717,0.19076,4
830.911,100.2,-0.43983,10.63174,0.18735,4
836.919,100.8,-0.39959,10.65005,0.18394,4
842.928,101.4,-0.3691,10.61648,0.18053,4
848.929,102,-0.33455,10.59817,0.17712,4
854.934,102.6,-0.30304,10.61139,0.17372,4
860.939,103.2,-0.26429,10.57579,0.17033,4
866.941,103.8,-0.22546,10.56765,0.16694,4
872.944,104.4,-0.19435,10.57985,0.16357,4
878.958,105,-0.1651,10.55341,0.1602,4
884.956,105.6,-0.12809,10.57172,0.15686,4
890.968,106.2,-9.03E-02,10.5412,0.15353,4
896.971,106.8,-5.76E-02,10.52594,0.15022,4
900.011,107.505,-0.3912,10.54018,0.14855,5
889.302,108.255,-0.36226,10.48627,0.15445,5
873.179,109.005,-0.28943,10.53509,0.16344,5
856.704,109.755,-0.28639,10.76398,0.17272,5
840.547,110.505,-0.31182,10.54019,0.18188,5
824.592,111.255,-0.337,10.54222,0.19093,5
808.734,112.005,-0.35561,10.51272,0.19989,5
793.018,112.755,-0.37535,10.51679,0.20869,5
777.397,113.505,-0.38446,10.48525,0.21731,5
761.857,114.255,-0.40283,10.59105,0.22571,5
746.399,115.005,-0.40948,10.53103,0.23384,5
731.02,115.755,-0.41251,10.53306,0.24168,5
715.684,116.505,-0.42458,10.51374,0.24919,5
700.4,117.255,-0.43409,10.55137,0.25632,5
685.171,118.005,-0.44137,10.52797,0.26304,5
669.989,118.755,-0.44479,10.56052,0.26931,5
654.841,119.505,-0.44698,10.54018,0.2751,5
639.719,120.255,-0.44853,10.54324,0.28039,5
624.633,121.005,-0.44822,10.55239,0.28513,5
609.545,121.755,-0.44922,10.53916,0.2893,5
594.482,122.505,-0.45154,10.54425,0.29288,5
579.431,123.255,-0.441,10.54933,0.29585,5
564.385,124.005,-0.44096,10.53408,0.29818,5
549.348,124.755,-0.43764,10.55137,0.29986,5
534.341,125.505,-0.43574,10.56155,0.30088,5
519.324,126.255,-0.43396,10.55036,0.30123,5
504.32,127.005,-0.42935,10.55951,0.30091,5
489.334,127.755,-0.42101,10.56256,0.29993,5
474.344,128.505,-0.41097,10.55952,0.29828,5
459.344,129.255,-0.39441,10.58087,0.29597,5
444.362,130.005,-0.38709,10.58088,0.29303,5
429.371,130.755,-0.36813,10.56053,0.28946,5
414.397,131.505,-0.34854,10.56968,0.2853,5
399.411,132.255,-0.33902,10.57782,0.28056,5
384.511,133.005,-0.31501,10.59207,0.27531,5
369.858,133.755,-0.28578,10.58291,0.26965,5
355.594,134.505,-0.25558,10.5829,0.26369,5
341.814,135.255,-0.22908,10.59715,0.25756,5
328.578,136.005,-0.21198,10.58698,0.25134,5
315.895,136.755,-0.19299,10.60224,0.24511,5
303.747,137.505,-0.17617,10.58494,0.23892,5
292.119,138.255,-0.15622,10.59003,0.2328,5
280.978,139.005,-0.1284,10.58596,0.22679,5
270.288,139.755,-0.11167,10.59614,0.22091,5
260.052,140.505,-8.98E-02,10.59511,0.21517,5
250.226,141.255,-6.49E-02,10.62563,0.20959,5
240.796,142.005,-3.74E-02,10.58494,0.20417,5
231.743,142.755,-1.41E-02,10.63072,0.19893,5
223.049,143.505,6.56E-03,10.6063,0.19387,5
214.681,144.255,2.83E-02,10.60427,0.18897,5
206.662,145.005,4.97E-02,10.60326,0.18426,5
198.941,145.755,6.93E-02,10.61241,0.17973,5
191.511,146.505,8.34E-02,10.6175,0.17536,5
184.384,147.255,0.10623,10.6175,0.17118,5
177.533,148.005,0.12247,10.62157,0.16717,5
170.99,148.755,0.14168,10.62767,0.16335,5
164.701,149.505,0.16324,10.63174,0.15969,5
158.642,150.255,0.17668,10.62258,0.15618,5
156.487,150.53,0.18303,10.62156,0.15493,5