File: cffp/char_GF_reground_25_10_10.csv
#FILE:                       ,Char_GF_reground_25_10_10.dsu
#FORMAT:                     ,NETZSCH5
#IDENTITY:                   ,Char GF reground_25_10_10
#DECIMAL:                    ,POINT
#SEPARATOR:                  ,COMMA
#MTYPE:                      ,DTA
#MSUBTYPE:                   ,
#INSTRUMENT:                 ,NETZSCH STA 449 C
#PROJECT:                    ,Torrefaction
#DATE/TIME:                  ,25/10/2010 13:55:38
#CORR. FILE:                 ,buoyancy_drying_13_10_10.bsu
#LABORATORY:                 ,Sustainable Research Energ
#OPERATOR:                   ,A Saddawi
#REMARK:                     ,
#SAMPLE:                     ,nonisoth oxid with init drying
#SAMPLE MASS /mg:            ,10.130
#MATERIAL:                   ,char
#REFERENCE:                  ,Alumina
#REFERENCE MASS /mg:         ,0.000
#TYPE OF CRUCIBLE:           ,DTA/TG crucible Al2O3
#SAMPLE CRUCIBLE MASS /mg:   ,0.000
#REFERENCE CRUCIBLE MASS /mg:,0.000
#CORR. CODE:                 ,020
#EXO:                        ,-1
#RANGE:                      ,30.0....900.0/0.0....10.0K/min
#SEGMENT:                    ,S1-4/4

##Temp./øC,Time/min,DTA/(mW/mg),Mass/%,DTG/(%/min),Sensit./(æV/mW),Segment
 33.36000,0.0000e+000, 4.2492e-002,100, 1.0606e-012,9.0024e-002,1
 33.37600,    0.65000, 2.1929e-002, 99.95163,    -0.12526,9.0031e-002,1
 34.20900,    1.30000,    -0.33302, 99.85489,    -0.10056,9.0411e-002,1
 38.09700,    1.95000,    -0.54862, 99.78184,    -0.10786,9.2217e-002,1
 44.58400,    2.60000,    -0.46241, 99.69398,    -0.19325,9.5267e-002,1
 52.48500,    3.25000,    -0.28777, 99.55281,    -0.28150,9.9053e-002,1
 60.94400,    3.90000,    -0.13273, 99.37117,    -0.33277,    0.10319,1
 69.43800,    4.55000,-2.5269e-002, 99.14709,    -0.36021,    0.10743,1
 77.70900,    5.20000, 2.9844e-002, 98.90424,    -0.35962,    0.11164,1
 85.71000,    5.85000,-4.2631e-003, 98.66634,    -0.35349,    0.11578,1
 93.47800,    6.50000,-5.6618e-002, 98.45015,    -0.33717,    0.11987,1
100.933,    7.15000,    -0.11757, 98.26653,    -0.26378,    0.12385,2
107.578,    7.80000,     0.15299, 98.08588,    -0.23654,    0.12744,2
112.084,    8.45000,     0.51013, 97.92004,    -0.23112,    0.12990,2
114.456,    9.10000,     0.72609, 97.77986,    -0.19893,    0.13120,2
115.198,    9.75000,     0.82229, 97.66140,    -0.17220,    0.13161,2
114.766,   10.40000,     0.84351, 97.57552,-7.1244e-002,    0.13137,2
113.529,   11.05000,     0.83467, 97.50247,-3.8255e-002,    0.13069,2
111.759,   11.70000,     0.80191, 97.45508,-4.9787e-002,    0.12972,2
109.621,   12.35000,     0.75640, 97.42349,-3.1604e-002,    0.12855,2
107.264,   13.00000,     0.70488, 97.39487,-1.6522e-002,    0.12727,2
104.764,   13.65000,     0.65660, 97.37907,-2.1777e-002,    0.12591,2
102.202,   14.30000,     0.60841, 97.36624,-2.4279e-002,    0.12453,2
 99.59500,   14.95000,     0.56722, 97.35735,-1.0349e-002,    0.12313,2
 97.23700,   15.60000,     0.41311, 97.35439, 2.7179e-002,    0.12187,2
 96.00600,   16.25000,     0.23517, 97.34946, 3.2007e-002,    0.12121,2
 95.91300,   16.90000,     0.21794, 97.34748, 7.2819e-003,    0.12116,2
 96.44800,   17.55000,     0.28043, 97.34847,-9.3480e-003,    0.12145,2
 97.17100,   18.20000,     0.34639, 97.34748, 2.4321e-002,    0.12183,2
 97.84700,   18.85000,     0.39989, 97.34452, 4.5094e-003,    0.12219,2
 98.36800,   19.50000,     0.42921, 97.34057,-5.6237e-002,    0.12247,2
 98.76200,   20.15000,     0.44255, 97.33465,-9.7513e-003,    0.12268,2
 99.04800,   20.80000,     0.44602, 97.33366,-4.0307e-004,    0.12284,2
 99.27300,   21.45000,     0.45160, 97.32379,-1.3858e-002,    0.12296,2
 99.44800,   22.10000,     0.45126, 97.32083,     0.21802,    0.12305,3
 99.58400,   22.75000,     0.44498, 97.31589,-2.8789e-002,    0.12312,3
 99.68100,   23.40000,     0.44479, 97.32873,-7.0128e-003,    0.12318,3
 99.74200,   24.05000,     0.44768, 97.34650, 1.2596e-003,    0.12321,3
 99.81400,   24.70000,     0.44854, 97.34650,-9.8898e-003,    0.12325,3
 99.86600,   25.35000,     0.45244, 97.34847, 6.5644e-003,    0.12328,3
 99.91400,   26.00000,     0.45935, 97.35143, 9.1780e-003,    0.12330,3
 99.95500,   26.65000,     0.46127, 97.34156, 3.4327e-003,    0.12332,3
 99.98200,   27.30000,     0.44721, 97.33959, 1.9367e-002,    0.12334,4
101.104,   27.95000, 3.0864e-002, 97.33366,-1.7954e-002,    0.12394,4
105.175,   28.60000,    -0.56447, 97.33070, 6.6071e-003,    0.12614,4
111.745,   29.25000,    -1.01600, 97.31984,-2.9537e-002,    0.12971,4
119.686,   29.90000,    -1.25437, 97.29319,-4.3847e-002,    0.13408,4
128.142,   30.55000,    -1.34161, 97.26851,-3.7111e-002,    0.13879,4
136.565,   31.20000,    -1.37034, 97.22705,-6.7858e-002,    0.14354,4
144.712,   31.85000,    -1.38329, 97.16881,-6.2250e-002,    0.14817,4
152.497,   32.50000,    -1.42449, 97.11649,-8.7966e-002,    0.15263,4
159.964,   33.15000,    -1.48837, 97.04936,-8.6651e-002,    0.15694,4
167.191,   33.80000,    -1.58364, 96.99803,-6.0550e-002,    0.16114,4
174.237,   34.45000,    -1.68990, 96.94274,-8.7412e-002,    0.16524,4
181.179,   35.10000,    -1.80534, 96.89240,-7.6891e-002,    0.16930,4
188.034,   35.75000,    -1.94502, 96.85884,-7.0858e-002,    0.17332,4
194.808,   36.40000,    -2.07752, 96.81441,-4.7327e-002,    0.17730,4
201.492,   37.05000,    -2.21357, 96.78381,-4.6718e-002,    0.18123,4
208.13,   37.70000,    -2.35492, 96.74729,-8.0713e-002,    0.18513,4
214.715,   38.35000,    -2.49940, 96.70681,-5.0505e-002,    0.18899,4
221.281,   39.00000,    -2.65947, 96.67621,-6.2811e-002,    0.19283,4
227.798,   39.65000,    -2.82140, 96.63672,-6.4621e-002,    0.19664,4
234.321,   40.30000,    -2.99397, 96.60020,-4.4404e-002,    0.20043,4
240.82,   40.95000,    -3.16607, 96.55775,-9.0501e-002,    0.20419,4
247.306,   41.60000,    -3.34791, 96.51629,-8.3406e-002,    0.20791,4
253.772,   42.25000,    -3.54192, 96.47285,-6.1955e-002,    0.21161,4
260.245,   42.90000,    -3.73892, 96.41560,-8.0988e-002,    0.21528,4
266.709,   43.55000,    -3.94700, 96.35143,    -0.10351,    0.21891,4
273.162,   44.20000,    -4.16940, 96.28628,-9.9589e-002,    0.22250,4
279.607,   44.85000,    -4.41305, 96.20731,    -0.16176,    0.22604,4
286.055,   45.50000,    -4.65684, 96.12241,    -0.10572,    0.22955,4
292.505,   46.15000,    -4.92192, 96.00691,    -0.20765,    0.23301,4
298.943,   46.80000,    -5.20437, 95.87759,    -0.19423,    0.23641,4
305.392,   47.45000,    -5.50412, 95.73741,    -0.23094,    0.23977,4
311.815,   48.10000,    -5.82418, 95.55874,    -0.28346,    0.24306,4
318.259,   48.75000,    -6.17349, 95.35242,    -0.36572,    0.24629,4
324.715,   49.40000,    -6.54987, 95.10267,    -0.41509,    0.24947,4
331.146,   50.05000,    -6.95851, 94.81836,    -0.49358,    0.25257,4
337.593,   50.70000,    -7.39524, 94.46792,    -0.58682,    0.25561,4
344.028,   51.35000,    -7.87231, 94.05331,    -0.68101,    0.25857,4
350.467,   52.00000,    -8.38673, 93.57552,    -0.80828,    0.26145,4
356.912,   52.65000,    -8.92941, 93.03060,    -0.90784,    0.26426,4
363.363,   53.30000,    -9.50605, 92.38105,    -1.08582,    0.26699,4
369.818,   53.95000,   -10.12910, 91.64067,    -1.16949,    0.26963,4
376.264,   54.60000,   -10.80900, 90.77591,    -1.44242,    0.27218,4
382.725,   55.25000,   -11.55714, 89.76407,    -1.65904,    0.27465,4
389.181,   55.90000,   -12.37779, 88.60217,    -1.93599,    0.27701,4
395.64,   56.55000,   -13.27346, 87.22902,    -2.23901,    0.27928,4
402.105,   57.20000,   -14.24870, 85.64758,    -2.59930,    0.28145,4
408.576,   57.85000,   -15.27909, 83.72162,    -3.57197,    0.28353,4
415.055,   58.50000,   -16.34067, 81.61402,    -3.48960,    0.28550,4
421.519,   59.15000,   -17.38546, 79.24580,    -3.82072,    0.28736,4
427.989,   59.80000,   -18.36480, 76.63080,    -4.25932,    0.28911,4
434.444,   60.45000,   -19.23646, 73.77789,    -4.51996,    0.29074,4
440.909,   61.10000,   -19.98029, 70.72557,    -4.86310,    0.29226,4
447.365,   61.75000,   -20.59580, 67.51826,    -5.35359,    0.29367,4
453.802,   62.40000,   -21.11173, 64.15400,    -5.23830,    0.29496,4
460.242,   63.05000,   -21.54619, 60.66930,    -5.38109,    0.29613,4
466.697,   63.70000,   -21.92979, 57.06318,    -5.84616,    0.29718,4
473.134,   64.35000,   -22.27308, 53.36229,    -5.72505,    0.29811,4
479.58,   65.00000,   -22.55184, 49.53801,    -6.00642,    0.29893,4
486.036,   65.65000,   -22.75015, 45.63968,    -6.04007,    0.29962,4
492.478,   66.30000,   -22.85835, 41.71965,    -6.11452,    0.30019,4
498.923,   66.95000,   -22.88235, 37.75518,    -5.93110,    0.30063,4
505.364,   67.60000,   -22.80660, 33.81540,    -5.92040,    0.30096,4
511.814,   68.25000,   -22.56659, 29.95459,    -5.86604,    0.30115,4
518.251,   68.90000,   -21.93423, 26.22211,    -5.55026,    0.30123,4
524.667,   69.55000,   -19.48195, 22.99704,    -3.93206,    0.30118,4
530.906,   70.20000,   -10.26504, 21.95262,    -0.27343,    0.30102,4
537.156,   70.85000,    -6.93181, 21.86279,-9.7433e-002,    0.30074,4
543.621,   71.50000,    -6.25884, 21.81737,-2.8258e-002,    0.30033,4
550.175,   72.15000,    -6.16808, 21.77591,-6.1803e-002,    0.29978,4
556.748,   72.80000,    -6.23223, 21.74235,-5.4555e-002,    0.29911,4
563.292,   73.45000,    -6.33604, 21.71767,-5.1061e-002,    0.29832,4
569.817,   74.10000,    -6.45960, 21.68608,-4.6090e-002,    0.29741,4
576.328,   74.75000,    -6.58906, 21.65153,-5.1698e-002,    0.29638,4
582.854,   75.40000,    -6.72721, 21.62093,-6.1995e-002,    0.29523,4
589.366,   76.05000,    -6.86831, 21.57552,    -0.11456,    0.29396,4
595.876,   76.70000,    -6.99568, 21.52912,-9.1547e-002,    0.29258,4
602.392,   77.35000,    -7.13430, 21.45015,    -0.21503,    0.29108,4
608.881,   78.00000,    -7.27189, 21.34650,    -0.14809,    0.28947,4
615.38,   78.65000,    -7.41562, 21.23100,    -0.22535,    0.28776,4
621.876,   79.30000,    -7.57426, 21.11352,    -0.17632,    0.28593,4
628.386,   79.95000,    -7.73488, 21.03159,    -0.15779,    0.28400,4
634.875,   80.60000,    -7.87678, 20.96150,-7.5441e-002,    0.28197,4
641.377,   81.25000,    -7.99816, 20.87266,-7.6605e-002,    0.27983,4
647.87,   81.90000,    -8.08463, 20.78776,-7.1374e-002,    0.27760,4
654.374,   82.55000,    -8.11402, 20.69200,    -0.19698,    0.27528,4
660.852,   83.20000,    -8.02429, 20.57157,    -0.19449,    0.27286,4
667.358,   83.85000,    -7.71680, 20.43929,    -0.24306,    0.27035,4
673.835,   84.50000,    -7.11531, 20.28924,    -0.25102,    0.26777,4
680.318,   85.15000,    -6.44552, 20.14413,    -0.26659,    0.26509,4
686.804,   85.80000,    -5.97975, 20.03060,    -0.12666,    0.26234,4
693.284,   86.45000,    -5.61321, 19.96644,-7.7343e-002,    0.25951,4
699.787,   87.10000,    -5.34463, 19.91708,-5.0969e-002,    0.25660,4
706.3,   87.75000,    -5.20714, 19.87069,-3.1984e-002,    0.25361,4
712.803,   88.40000,    -5.14150, 19.84205,-6.2480e-002,    0.25056,4
719.297,   89.05000,    -5.11842, 19.81638,-1.8218e-002,    0.24745,4
725.794,   89.70000,    -5.08995, 19.79269,-4.9422e-002,    0.24427,4
732.313,   90.35000,    -5.03197, 19.78283,-1.0328e-002,    0.24103,4
738.816,   91.00000,    -4.97753, 19.76802,-2.9152e-002,    0.23774,4
738.91,   91.01000,    -4.97428, 19.76802,-3.2954e-002,    0.23770,4