File: cffp/char_LF_reground_22_10_10.csv
#FILE:                       ,Char_LF_reground_22_10_10.dsu
#FORMAT:                     ,NETZSCH5
#IDENTITY:                   ,Char LF reground_22_10_10
#DECIMAL:                    ,POINT
#SEPARATOR:                  ,COMMA
#MTYPE:                      ,DTA
#MSUBTYPE:                   ,
#INSTRUMENT:                 ,NETZSCH STA 449 C
#PROJECT:                    ,Torrefaction
#DATE/TIME:                  ,22/10/2010 13:34:45
#CORR. FILE:                 ,buoyancy_drying_13_10_10.bsu
#LABORATORY:                 ,Sustainable Research Energ
#OPERATOR:                   ,A Saddawi
#REMARK:                     ,
#SAMPLE:                     ,nonisoth oxid with init drying
#SAMPLE MASS /mg:            ,10.120
#MATERIAL:                   ,char
#REFERENCE:                  ,Alumina
#REFERENCE MASS /mg:         ,0.000
#TYPE OF CRUCIBLE:           ,DTA/TG crucible Al2O3
#SAMPLE CRUCIBLE MASS /mg:   ,0.000
#REFERENCE CRUCIBLE MASS /mg:,0.000
#CORR. CODE:                 ,020
#EXO:                        ,-1
#RANGE:                      ,30.0....900.0/0.0....10.0K/min
#SEGMENT:                    ,S1-4/4

##Temp./øC,Time/min,DTA/(mW/mg),Mass/%,DTG/(%/min),Sensit./(æV/mW),Segment
 31.30800,0.0000e+000,-6.3784e-002,100,-5.2121e-002,8.9079e-002,1
 31.39000,    0.70000,-5.8210e-002, 99.94368,-5.8176e-002,8.9121e-002,1
 33.70800,    1.40000, 2.7393e-003, 99.89625,    -0.14694,9.0180e-002,1
 39.53700,    2.10000,    -0.20345, 99.83202,    -0.10682,9.2889e-002,1
 47.54700,    2.80000,    -0.37946, 99.75198,    -0.14039,9.6677e-002,1
 56.48400,    3.50000,    -0.45250, 99.63735,    -0.21907,    0.10100,1
 65.62000,    4.20000,    -0.45654, 99.48123,    -0.21468,    0.10551,1
 74.55200,    4.90000,    -0.45691, 99.31621,    -0.25476,    0.11002,1
 83.15900,    5.60000,    -0.46729, 99.15217,    -0.23609,    0.11445,1
 91.49100,    6.30000,    -0.49587, 99.00198,    -0.30501,    0.11882,1
 99.58500,    7.00000,    -0.51664, 98.86561,    -0.10922,    0.12312,1
106.896,    7.70000,    -0.28481, 98.74012,    -0.16054,    0.12707,2
111.962,    8.40000,     0.11417, 98.62352,    -0.13568,    0.12983,2
114.54,    9.10000,     0.37551, 98.52866,    -0.11530,    0.13124,2
115.194,    9.80000,     0.50776, 98.46542,-9.4768e-002,    0.13160,2
114.532,   10.50000,     0.55623, 98.41996,-5.6209e-002,    0.13124,2
112.994,   11.20000,     0.57783, 98.38834,-4.1222e-002,    0.13039,2
110.875,   11.90000,     0.57441, 98.36858,-3.9485e-003,    0.12924,2
108.402,   12.60000,     0.55439, 98.35573,-2.5102e-002,    0.12789,2
105.714,   13.30000,     0.51194, 98.34881,-1.1414e-002,    0.12643,2
102.896,   14.00000,     0.48060, 98.34684, 6.3382e-003,    0.12490,2
100.036,   14.70000,     0.44755, 98.34387, 2.3033e-002,    0.12337,2
 97.46600,   15.40000,     0.42222, 98.35079, 4.3204e-002,    0.12199,2
 96.21400,   16.10000,     0.34615, 98.35375, 2.3463e-002,    0.12132,2
 96.21800,   16.80000,     0.26470, 98.35870,-2.9567e-002,    0.12133,2
 96.85700,   17.50000,     0.22335, 98.35375,-3.8411e-003,    0.12167,2
 97.59700,   18.20000,     0.21251, 98.35178, 2.4749e-002,    0.12206,2
 98.23000,   18.90000,     0.22706, 98.35178, 2.3084e-002,    0.12240,2
 98.71200,   19.60000,     0.25478, 98.35079,-2.3084e-002,    0.12266,2
 99.06000,   20.30000,     0.26545, 98.35079, 2.6237e-002,    0.12284,2
 99.31300,   21.00000,     0.27620, 98.34980,-1.8973e-002,    0.12298,2
 99.49700,   21.70000,     0.28000, 98.34783, 1.8973e-002,    0.12308,2
 99.63700,   22.40000,     0.29086, 98.31719,-4.1410e-002,    0.12315,3
 99.72200,   23.10000,     0.28574, 98.39526,     0.15400,    0.12320,3
 99.79600,   23.80000,     0.28264, 98.44269, 6.1792e-003,    0.12324,3
 99.84300,   24.50000,     0.28659, 98.44466,-1.5796e-003,    0.12326,3
 99.89300,   25.20000,     0.29354, 98.44763, 1.3031e-002,    0.12329,3
 99.94900,   25.90000,     0.29147, 98.45059, 1.3094e-003,    0.12332,3
 99.96600,   26.60000,     0.29745, 98.44862,-5.2587e-003,    0.12333,3
100.006,   27.30000,     0.28740, 98.45158,-1.6893e-003,    0.12335,4
101.344,   28.00000,    -0.15332, 98.43478, 2.4096e-002,    0.12407,4
106.114,   28.70000,    -0.76270, 98.42787,-7.1814e-003,    0.12664,4
113.551,   29.40000,    -1.23423, 98.41700,-3.4106e-002,    0.13070,4
122.318,   30.10000,    -1.48631, 98.38735,-4.4339e-002,    0.13554,4
131.439,   30.80000,    -1.58961, 98.36166,-3.4862e-002,    0.14064,4
140.396,   31.50000,    -1.61995, 98.32213,-6.2875e-002,    0.14571,4
148.965,   32.20000,    -1.64851, 98.27964,-6.6880e-002,    0.15060,4
157.144,   32.90000,    -1.68045, 98.23617,-6.3119e-002,    0.15531,4
164.996,   33.60000,    -1.74930, 98.18972,-4.6972e-002,    0.15986,4
172.62,   34.30000,    -1.83435, 98.15020,-5.6853e-002,    0.16430,4
180.093,   35.00000,    -1.93331, 98.10771,-5.8346e-002,    0.16867,4
187.482,   35.70000,    -2.05983, 98.06719,-4.7766e-002,    0.17300,4
194.755,   36.40000,    -2.18231, 98.03063,-2.3121e-002,    0.17727,4
201.967,   37.10000,    -2.30762, 98.00395,-3.0410e-002,    0.18151,4
209.119,   37.80000,    -2.44166, 97.97628,-5.2366e-002,    0.18571,4
216.2,   38.50000,    -2.58539, 97.94960,-3.9375e-002,    0.18986,4
223.258,   39.20000,    -2.72902, 97.91897,-5.4337e-002,    0.19399,4
230.288,   39.90000,    -2.89082, 97.89822,-2.9150e-002,    0.19809,4
237.291,   40.60000,    -3.04658, 97.86561,-3.2541e-002,    0.20215,4
244.295,   41.30000,    -3.21811, 97.83399,-5.3715e-002,    0.20619,4
251.271,   42.00000,    -3.37964, 97.80237,-4.6535e-002,    0.21019,4
258.244,   42.70000,    -3.55473, 97.76976,-4.4446e-002,    0.21415,4
265.192,   43.40000,    -3.74245, 97.73123,-7.6736e-002,    0.21806,4
272.138,   44.10000,    -3.94320, 97.69071,-7.2071e-002,    0.22193,4
279.063,   44.80000,    -4.15123, 97.64723,-8.1494e-002,    0.22575,4
285.994,   45.50000,    -4.37581, 97.58992,-6.7403e-002,    0.22952,4
292.942,   46.20000,    -4.61466, 97.52174,    -0.13330,    0.23324,4
299.878,   46.90000,    -4.85775, 97.44071,-7.8199e-002,    0.23690,4
306.817,   47.60000,    -5.12862, 97.34289,    -0.17163,    0.24050,4
313.758,   48.30000,    -5.40408, 97.22628,    -0.17046,    0.24404,4
320.684,   49.00000,    -5.70441, 97.08794,    -0.21419,    0.24749,4
327.636,   49.70000,    -6.03635, 96.91996,    -0.26613,    0.25089,4
334.566,   50.40000,    -6.39035, 96.72431,    -0.31682,    0.25419,4
341.497,   51.10000,    -6.77726, 96.48814,    -0.37131,    0.25741,4
348.439,   51.80000,    -7.19147, 96.20949,    -0.43022,    0.26055,4
355.378,   52.50000,    -7.63222, 95.87747,    -0.49041,    0.26360,4
362.327,   53.20000,    -8.07678, 95.49407,    -0.57232,    0.26656,4
369.275,   53.90000,    -8.52574, 95.06324,    -0.66880,    0.26941,4
376.209,   54.60000,    -8.99846, 94.55632,    -0.77921,    0.27216,4
383.148,   55.30000,    -9.49206, 93.98320,    -0.89817,    0.27480,4
390.115,   56.00000,   -10.01469, 93.32806,    -1.03326,    0.27735,4
397.085,   56.70000,   -10.60006, 92.56621,    -1.10088,    0.27978,4
404.033,   57.40000,   -11.22755, 91.72530,    -1.36907,    0.28208,4
410.987,   58.10000,   -11.93797, 90.74111,    -1.51019,    0.28427,4
417.933,   58.80000,   -12.76036, 89.59585,    -1.79048,    0.28634,4
424.889,   59.50000,   -13.69500, 88.23123,    -2.06930,    0.28828,4
431.869,   60.20000,   -14.65775, 86.68379,    -2.38719,    0.29010,4
438.838,   60.90000,   -15.64062, 84.89229,    -2.69643,    0.29179,4
445.803,   61.60000,   -16.59959, 82.75593,    -3.02390,    0.29334,4
452.764,   62.30000,   -17.46176, 80.51976,    -3.40411,    0.29476,4
459.725,   63.00000,   -18.20567, 78.10573,    -3.58382,    0.29604,4
466.676,   63.70000,   -18.82904, 75.52668,    -3.74160,    0.29718,4
473.626,   64.40000,   -19.37679, 72.81621,    -3.97023,    0.29818,4
480.57,   65.10000,   -19.91665, 69.96542,    -4.45655,    0.29904,4
487.524,   65.80000,   -20.47947, 66.96640,    -4.36704,    0.29976,4
494.481,   66.50000,   -21.07382, 63.76581,    -4.68156,    0.30034,4
501.447,   67.20000,   -21.73368, 60.36759,    -5.07209,    0.30077,4
508.41,   67.90000,   -22.42740, 56.75296,    -5.35210,    0.30106,4
515.39,   68.60000,   -23.13535, 52.85672,    -5.69866,    0.30121,4
522.349,   69.30000,   -23.79340, 48.75000,    -6.05904,    0.30121,4
529.325,   70.00000,   -24.37374, 44.40909,    -6.25090,    0.30107,4
536.29,   70.70000,   -24.87089, 39.94664,    -6.46657,    0.30078,4
543.243,   71.40000,   -25.15609, 35.36067,    -6.48627,    0.30035,4
550.195,   72.10000,   -25.23331, 30.78854,    -6.42661,    0.29978,4
557.152,   72.80000,   -25.08824, 26.28459,    -6.61662,    0.29907,4
564.104,   73.50000,   -24.76441, 21.89525,    -6.15801,    0.29822,4
571.05,   74.20000,   -24.11144, 17.67984,    -5.81735,    0.29722,4
577.955,   74.90000,   -21.14629, 13.95257,    -4.32186,    0.29610,4
584.676,   75.60000,    -8.08752, 12.98024,-6.8408e-002,    0.29488,4
591.432,   76.30000,    -4.85726, 12.96047,-5.2565e-002,    0.29353,4
598.448,   77.00000,    -4.24405, 12.91897,-8.0786e-002,    0.29200,4
605.534,   77.70000,    -4.17082, 12.86463,-9.0156e-002,    0.29031,4
612.611,   78.40000,    -4.22615, 12.82411,-7.1285e-002,    0.28850,4
619.657,   79.10000,    -4.31070, 12.77174,-9.2399e-002,    0.28657,4
626.701,   79.80000,    -4.38789, 12.72332,-7.0926e-002,    0.28451,4
633.727,   80.50000,    -4.41381, 12.65514,-5.9766e-002,    0.28233,4
640.75,   81.20000,    -4.33039, 12.58102,    -0.13431,    0.28004,4
647.761,   81.90000,    -4.01283, 12.50000,    -0.12077,    0.27764,4
654.778,   82.60000,    -3.30336, 12.41205,    -0.12228,    0.27513,4
661.761,   83.30000,    -2.39133, 12.32509,    -0.12672,    0.27252,4
668.753,   84.00000,    -1.74608, 12.24802,-9.3375e-002,    0.26980,4
675.769,   84.70000,    -1.40230, 12.20060,-5.5590e-002,    0.26698,4
682.782,   85.40000,    -1.22837, 12.16502,-3.6996e-002,    0.26406,4
689.795,   86.10000,    -1.15028, 12.13340,-4.2933e-002,    0.26104,4
696.808,   86.80000,    -1.10855, 12.11166,-4.5710e-002,    0.25795,4
703.812,   87.50000,    -1.09671, 12.09091,-2.8393e-002,    0.25476,4
710.819,   88.20000,    -1.09031, 12.07905,-5.8056e-003,    0.25150,4
717.807,   88.90000,    -1.08303, 12.07016,-2.6300e-002,    0.24817,4
724.824,   89.60000,    -1.06586, 12.05829,-1.3136e-002,    0.24475,4
731.824,   90.30000,    -1.05049, 12.04545,-2.5142e-002,    0.24128,4
738.832,   91.00000,    -1.02926, 12.03261,-1.9414e-002,    0.23773,4
745.837,   91.70000,    -1.01606, 12.01581,-1.2890e-003,    0.23413,4
752.834,   92.40000,    -1.02036, 12.00494, 5.4532e-002,    0.23048,4
759.844,   93.10000,    -1.02778, 11.98518,-2.3045e-002,    0.22678,4
766.839,   93.80000,    -1.04282, 11.97529,-6.0696e-003,    0.22303,4
773.84,   94.50000,    -1.06986, 11.95850,-4.4960e-003,    0.21924,4
780.859,   95.20000,    -1.09866, 11.94960,-2.9643e-002,    0.21541,4
787.862,   95.90000,    -1.12921, 11.94565,    -0.15764,    0.21155,4
794.859,   96.60000,    -1.18067, 11.92392,-2.3790e-002,    0.20766,4
801.867,   97.30000,    -1.22155, 11.91600,-1.2795e-002,    0.20375,4
808.874,   98.00000,    -1.28147, 11.90810,-9.7583e-003,    0.19981,4
812.976,   98.41000,    -1.32711, 11.89723,-4.9093e-002,    0.19750,4