File: cffp/char_N2_reground_2_11_10.csv
#FILE:                       ,Char_N2_reground_2_11_10.dsu    ,,,,,
#FORMAT:                     ,NETZSCH5                        ,,,,,
#IDENTITY:                   ,Char N2 reground_2_11_10        ,,,,,
#DECIMAL:                    ,POINT                           ,,,,,
#SEPARATOR:                  ,COMMA                           ,,,,,
#MTYPE:                      ,DTA                             ,,,,,
#MSUBTYPE:                   ,                                ,,,,,
#INSTRUMENT:                 ,NETZSCH STA 449 C               ,,,,,
#PROJECT:                    ,Torrefaction                    ,,,,,
#DATE/TIME:                  ,2/11/2010 9:33,,,,,
#CORR. FILE:                 ,buoyancy_drying_13_10_10.bsu    ,,,,,
#LABORATORY:                 ,Sustainable Research Energ      ,,,,,
#OPERATOR:                   ,A Saddawi                       ,,,,,
#REMARK:                     ,                                ,,,,,
#SAMPLE:                     ,nonisoth oxid with init drying  ,,,,,
#SAMPLE MASS /mg:            ,10.42,,,,,
#MATERIAL:                   ,char                            ,,,,,
#REFERENCE:                  ,Alumina                         ,,,,,
#REFERENCE MASS /mg:         ,0,,,,,
#TYPE OF CRUCIBLE:           ,DTA/TG crucible Al2O3           ,,,,,
#SAMPLE CRUCIBLE MASS /mg:   ,0,,,,,
#REFERENCE CRUCIBLE MASS /mg:,0,,,,,
#CORR. CODE:                 ,20,,,,,
#EXO:                        ,-1,,,,,
#RANGE:                      ,30.0....900.0/-20.0....10.0K/min,,,,,
#SEGMENT:                    ,S1-5/5                          ,,,,,
,,,,,,
##Temp./øC,Time/min,DTA/(mW/mg),Mass/%,DTG/(%/min),Sensit./(æV/mW),Segment
32.216,0.00E+00,5.63E-02,100,-0.13359,8.95E-02,1
32.206,0.63,3.08E-02,99.92514,-8.65E-02,8.95E-02,1
33.378,1.26,-0.23984,99.84261,-0.17091,9.00E-02,1
37.498,1.89,-0.85204,99.77639,-0.12339,9.19E-02,1
43.902,2.52,-1.43157,99.67946,-0.16692,9.49E-02,1
51.625,3.15,-1.75497,99.55086,-0.22931,9.86E-02,1
59.827,3.78,-1.93548,99.38964,-0.25722,0.10264,1
68.061,4.41,-2.02075,99.21113,-0.27871,0.10674,1
76.077,5.04,-2.06678,99.03167,-0.27532,0.1108,1
83.833,5.67,-2.11596,98.86276,-0.21854,0.11481,1
91.395,6.3,-2.1504,98.70058,-0.27855,0.11877,1
98.705,6.93,-2.20263,98.56814,-0.19668,0.12265,1
105.535,7.56,-2.01977,98.44818,-0.19431,0.12633,2
110.722,8.19,-1.42113,98.34741,-0.14821,0.12915,2
113.78,8.82,-0.83718,98.26488,-0.127,0.13083,2
115.099,9.45,-0.37935,98.19578,-9.87E-02,0.13155,2
115.118,10.08,-6.02E-02,98.14779,-6.43E-02,0.13156,2
114.208,10.71,0.14371,98.11036,-2.26E-02,0.13106,2
112.68,11.34,0.30031,98.08253,-2.90E-02,0.13022,2
110.712,11.97,0.3892,98.0595,-2.43E-02,0.12915,2
108.478,12.6,0.4548,98.04703,-1.53E-02,0.12793,2
106.056,13.23,0.47563,98.03551,-1.44E-02,0.12661,2
103.53,13.86,0.48082,98.02879,-2.01E-02,0.12525,2
100.955,14.49,0.5046,98.02303,1.06E-02,0.12386,2
98.436,15.12,0.4896,98.02015,-1.60E-02,0.12251,2
96.656,15.75,0.37106,98.02303,-4.48E-02,0.12156,2
96.054,16.38,0.14051,98.02207,2.87E-03,0.12124,2
96.301,17.01,-5.44E-02,98.02207,6.93E-03,0.12137,2
96.935,17.64,-0.15475,98.0144,-1.07E-02,0.12171,2
97.614,18.27,-0.18672,98.01344,-1.44E-02,0.12207,2
98.193,18.9,-0.17448,98.00672,2.77E-03,0.12238,2
98.64,19.53,-0.14381,98.0048,-3.62E-02,0.12262,2
98.966,20.16,-0.12309,98.00288,-4.78E-03,0.12279,2
99.206,20.79,-0.10345,98,-4.41E-03,0.12292,2
99.397,21.42,-9.17E-02,97.99424,-1.81E-02,0.12302,2
99.546,22.05,-7.99E-02,97.99904,0.1688,0.1231,3
99.66,22.68,-7.50E-02,97.97409,6.97E-02,0.12316,3
99.743,23.31,-8.37E-02,98.02207,4.12E-02,0.12321,3
99.799,23.94,-7.88E-02,98.04319,3.58E-02,0.12324,3
99.857,24.57,-7.88E-02,98.04703,-1.58E-03,0.12327,3
99.91,25.2,-7.39E-02,98.04703,5.28E-02,0.1233,3
99.94,25.83,-7.20E-02,98.05374,3.68E-04,0.12332,3
99.97,26.46,-6.42E-02,98.04702,-9.09E-03,0.12333,3
99.989,27.09,-5.35E-02,98.04702,1.77E-02,0.12334,4
100.416,27.72,-0.35531,98.04894,-6.34E-03,0.12357,4
103.247,28.35,-1.31283,98.03743,2.48E-02,0.12509,4
108.739,28.98,-2.36326,98.02879,-1.49E-02,0.12807,4
115.985,29.61,-3.14626,98.00864,-3.83E-02,0.13204,4
124.023,30.24,-3.61491,97.98752,-4.36E-02,0.13649,4
132.276,30.87,-3.82631,97.96353,-8.03E-02,0.14111,4
140.35,31.5,-3.89982,97.91843,-5.20E-02,0.14568,4
148.102,32.13,-3.92633,97.87716,-7.42E-02,0.15011,4
155.521,32.76,-3.95224,97.82726,-6.56E-02,0.15437,4
162.656,33.39,-4.00674,97.77447,-6.03E-02,0.1585,4
169.583,34.02,-4.09125,97.72073,-7.88E-02,0.16253,4
176.373,34.65,-4.18986,97.66219,-9.82E-02,0.16649,4
183.045,35.28,-4.31066,97.60077,-5.63E-02,0.1704,4
189.672,35.91,-4.43546,97.54607,-0.10588,0.17428,4
196.217,36.54,-4.56064,97.49136,-0.14453,0.17813,4
202.695,37.17,-4.69997,97.44242,-9.30E-02,0.18193,4
209.113,37.8,-4.84295,97.39155,-9.16E-02,0.1857,4
215.498,38.43,-5.00178,97.34357,-8.43E-02,0.18945,4
221.856,39.06,-5.15322,97.29271,-7.94E-02,0.19317,4
228.195,39.69,-5.31539,97.24952,-8.67E-02,0.19687,4
234.499,40.32,-5.48867,97.20441,-8.45E-02,0.20053,4
240.795,40.95,-5.6487,97.15643,-0.10026,0.20417,4
247.079,41.58,-5.83161,97.11036,-8.31E-02,0.20779,4
253.36,42.21,-6.01352,97.0643,-4.92E-02,0.21138,4
259.627,42.84,-6.20543,97.01536,-8.63E-02,0.21493,4
265.881,43.47,-6.40426,96.95777,-7.96E-02,0.21845,4
272.142,44.1,-6.60686,96.89923,-0.10946,0.22193,4
278.385,44.73,-6.82747,96.84069,-6.81E-02,0.22538,4
284.627,45.36,-7.05945,96.76871,-0.13956,0.22878,4
290.878,45.99,-7.29046,96.69674,-0.16895,0.23214,4
297.12,46.62,-7.53841,96.60845,-0.1103,0.23545,4
303.373,47.25,-7.79093,96.5096,-0.10496,0.23872,4
309.618,47.88,-8.04643,96.39539,-0.22444,0.24194,4
315.869,48.51,-8.31218,96.26775,-0.18267,0.2451,4
322.102,49.14,-8.58802,96.12572,-0.2319,0.24819,4
328.32,49.77,-8.86085,95.97313,-0.28791,0.25122,4
334.564,50.4,-9.13804,95.7975,-0.27946,0.25419,4
340.807,51.03,-9.42122,95.60653,-0.30341,0.25709,4
347.054,51.66,-9.68933,95.41171,-0.34221,0.25993,4
353.3,52.29,-9.96415,95.1881,-0.36975,0.2627,4
359.539,52.92,-10.23585,94.94818,-0.41675,0.26538,4
365.769,53.55,-10.50176,94.6977,-0.38547,0.26798,4
372.023,54.18,-10.75787,94.4309,-0.45266,0.27051,4
378.274,54.81,-11.01621,94.1382,-0.49175,0.27296,4
384.521,55.44,-11.27881,93.84261,-0.48763,0.27531,4
390.773,56.07,-11.53714,93.52399,-0.5032,0.27758,4
397.031,56.7,-11.80065,93.19098,-0.57227,0.27976,4
403.27,57.33,-12.06311,92.83205,-0.56958,0.28184,4
409.521,57.96,-12.34264,92.46065,-0.6009,0.28382,4
415.784,58.59,-12.63131,92.0595,-0.70881,0.28571,4
422.044,59.22,-12.93869,91.63148,-0.71695,0.2875,4
428.301,59.85,-13.25365,91.16219,-0.77035,0.28919,4
434.585,60.48,-13.58684,90.67562,-0.88713,0.29077,4
440.852,61.11,-13.93771,90.13628,-0.89124,0.29225,4
447.118,61.74,-14.31727,89.56334,-0.91187,0.29362,4
453.389,62.37,-14.71703,88.92994,-1.04365,0.29488,4
459.649,63,-15.14509,88.24088,-1.17716,0.29603,4
465.915,63.63,-15.60068,87.47985,-1.24534,0.29706,4
472.184,64.26,-16.08736,86.66123,-1.35091,0.29798,4
478.45,64.89,-16.6115,85.74088,-1.49466,0.29879,4
484.722,65.52,-17.16939,84.72649,-1.67785,0.29949,4
491.002,66.15,-17.77068,83.6142,-1.81778,0.30007,4
497.274,66.78,-18.4147,82.36276,-2.10112,0.30053,4
503.547,67.41,-19.09245,80.9856,-2.24368,0.30088,4
509.82,68.04,-19.82335,79.45586,-2.50697,0.30111,4
516.097,68.67,-20.61489,77.62476,-2.97579,0.30122,4
522.389,69.3,-21.45162,75.69386,-3.26717,0.30121,4
528.671,69.93,-22.34769,73.57582,-3.58888,0.30109,4
534.964,70.56,-23.32735,71.17179,-4.06519,0.30085,4
541.244,71.19,-24.41102,68.47793,-4.55138,0.30049,4
547.536,71.82,-25.60398,65.48656,-5.043,0.30002,4
553.826,72.45,-26.83112,62.1334,-5.51419,0.29943,4
560.113,73.08,-27.98433,58.47889,-5.99888,0.29872,4
566.407,73.71,-28.97536,54.59117,-6.43408,0.2979,4
572.676,74.34,-29.80536,50.51344,-6.6712,0.29697,4
578.951,74.97,-30.51427,46.29175,-6.79494,0.29593,4
585.202,75.6,-31.16894,41.94242,-7.03793,0.29478,4
591.483,76.23,-31.46191,37.46161,-7.11893,0.29352,4
597.708,76.86,-31.01363,33.03071,-6.76346,0.29217,4
603.899,77.49,-29.984,28.82437,-6.579,0.29071,4
610.112,78.12,-29.38517,24.71785,-6.27133,0.28916,4
616.358,78.75,-28.97146,20.72841,-6.14924,0.28749,4
622.635,79.38,-28.40418,16.88675,-5.85544,0.28571,4
628.879,80.01,-26.40024,13.23705,-5.42793,0.28385,4
635.057,80.64,-20.36383,10.29463,-2.60664,0.28191,4
641.065,81.27,-7.31542,10.09693,-2.82E-02,0.27994,4
647.202,81.9,-4.57415,10.04991,1.32E-02,0.27784,4
653.543,82.53,-3.72929,9.98368,-8.31E-02,0.27558,4
659.949,83.16,-3.38714,9.89348,-0.11544,0.27321,4
666.331,83.79,-3.2162,9.81766,-9.36E-02,0.27075,4
672.689,84.42,-3.1387,9.73705,-0.15195,0.26823,4
679.042,85.05,-3.11843,9.69578,-1.61E-02,0.26563,4
685.39,85.68,-3.14108,9.66795,-6.52E-02,0.26295,4
691.727,86.31,-3.16874,9.64492,-9.61E-02,0.2602,4
698.058,86.94,-3.21135,9.62285,-4.91E-02,0.25738,4
704.388,87.57,-3.26048,9.59981,-7.03E-02,0.25449,4
710.715,88.2,-3.30729,9.59597,2.19E-02,0.25155,4
717.032,88.83,-3.36371,9.58733,1.22E-02,0.24854,4
723.348,89.46,-3.42964,9.57581,-4.43E-02,0.24547,4
729.672,90.09,-3.49563,9.56814,-1.15E-03,0.24235,4
735.972,90.72,-3.56194,9.5595,4.13E-03,0.23919,4
742.299,91.35,-3.63557,9.54895,-2.09E-02,0.23596,4
748.607,91.98,-3.69887,9.53935,7.29E-03,0.2327,4
754.908,92.61,-3.77042,9.52495,-2.88E-02,0.2294,4
761.227,93.24,-3.84444,9.51631,-2.48E-02,0.22604,4
767.528,93.87,-3.91355,9.5048,-1.97E-02,0.22266,4
773.826,94.5,-3.99631,9.50096,-0.14585,0.21925,4
780.145,95.13,-4.07802,9.4952,-3.72E-02,0.2158,4
786.453,95.76,-4.16336,9.48176,-3.03E-02,0.21233,4
792.752,96.39,-4.24446,9.47409,-4.22E-03,0.20884,4
799.068,97.02,-4.32662,9.46449,-1.04E-02,0.20531,4
805.368,97.65,-4.41956,9.45969,-4.48E-02,0.20178,4
811.679,98.28,-4.51509,9.44626,-3.64E-03,0.19823,4
817.984,98.91,-4.6143,9.44434,-7.00E-03,0.19467,4
824.29,99.54,-4.71555,9.43282,-2.70E-02,0.1911,4
830.594,100.17,-4.83358,9.42707,-3.22E-02,0.18753,4
836.906,100.8,-4.95239,9.42803,-5.52E-02,0.18395,4
843.216,101.43,-5.08207,9.41939,-7.51E-03,0.18036,4
849.519,102.06,-5.22147,9.41267,-8.83E-03,0.17679,4
855.824,102.69,-5.36027,9.41651,8.02E-03,0.17322,4
862.137,103.32,-5.5034,9.40691,1.98E-02,0.16965,4
868.426,103.95,-5.65981,9.40499,-5.46E-02,0.16611,4
874.741,104.58,-5.82311,9.40115,1.55E-02,0.16256,4
881.062,105.21,-5.99173,9.39252,-6.59E-02,0.15903,4
887.373,105.84,-6.16093,9.39252,2.08E-02,0.15552,4
893.677,106.47,-6.35433,9.38196,-1.22E-02,0.15203,4
900.021,107.12,-6.37347,9.38963,6.11E-02,0.14854,5
895.746,107.9075,-3.5951,9.37908,-5.41E-02,0.15089,5
880.058,108.695,-2.54448,9.38868,3.77E-02,0.15959,5
862.618,109.4825,-2.19908,9.3762,5.15E-02,0.16938,5
845.497,110.27,-1.94207,9.37812,-3.04E-02,0.17907,5
828.651,111.0575,-1.71773,9.38579,7.17E-02,0.18863,5
811.967,111.845,-1.52383,9.3762,9.08E-02,0.19807,5
795.416,112.6325,-1.34452,9.381,5.08E-02,0.20735,5
778.988,113.42,-1.19998,9.3762,2.77E-02,0.21643,5
762.666,114.2075,-1.06663,9.381,-4.76E-02,0.22527,5
746.412,114.995,-0.95164,9.38292,9.51E-04,0.23384,5
730.247,115.7825,-0.84546,9.38772,1.03E-02,0.24206,5
714.142,116.57,-0.74399,9.38868,-3.14E-02,0.24992,5
698.097,117.3575,-0.65397,9.39252,1.77E-02,0.25736,5
682.113,118.145,-0.56455,9.39731,1.51E-02,0.26434,5
666.163,118.9325,-0.49434,9.39635,-1.83E-02,0.27082,5
650.275,119.72,-0.42349,9.4002,2.95E-04,0.27675,5
634.4,120.5075,-0.35505,9.40115,2.08E-02,0.28212,5
618.546,121.295,-0.29773,9.40883,2.12E-02,0.28688,5
602.739,122.0825,-0.23457,9.40499,3.83E-03,0.29099,5
586.898,122.87,-0.18618,9.41459,1.16E-02,0.29445,5
571.098,123.6575,-0.12472,9.42418,3.40E-02,0.29722,5
555.31,124.445,-6.57E-02,9.41939,1.67E-02,0.29927,5
539.53,125.2325,-1.40E-02,9.42514,1.97E-02,0.3006,5
527.53,125.8325,2.55E-02,9.42131,-0.15997,0.30112,5