File: cffp/char_GF_24_06_10.csv
#FILE:                       ,char_GF_24_06_10.dsu            ,,,,
#FORMAT:                     ,NETZSCH5                        ,,,,
#IDENTITY:                   ,char GF                         ,,,,
#DECIMAL:                    ,POINT                           ,,,,
#SEPARATOR:                  ,COMMA                           ,,,,
#MTYPE:                      ,DTA                             ,,,,
#MSUBTYPE:                   ,                                ,,,,
#INSTRUMENT:                 ,NETZSCH STA 449 C               ,,,,
#PROJECT:                    ,Torrefaction                    ,,,,
#DATE/TIME:                  ,24/06/2010 12:29:14             ,,,,
#CORR. FILE:                 ,char_GF_23_06_10.bsu            ,,,,
#LABORATORY:                 ,Sustainable Research Energ      ,,,,
#OPERATOR:                   ,EMF                             ,,,,
#REMARK:                     ,                                ,,,,
#SAMPLE:                     ,nonisoth oxid with init drying  ,,,,
#SAMPLE MASS /mg:            ,10.5,,,,
#MATERIAL:                   ,Alumina                         ,,,,
#REFERENCE:                  ,Alumina                         ,,,,
#REFERENCE MASS /mg:         ,0,,,,
#TYPE OF CRUCIBLE:           ,DTA/TG crucible Al2O3           ,,,,
#SAMPLE CRUCIBLE MASS /mg:   ,0,,,,
#REFERENCE CRUCIBLE MASS /mg:,0,,,,
#CORR. CODE:                 ,20,,,,
#EXO:                        ,-1,,,,
#RANGE:                      ,30.0....900.0/-20.0....10.0K/min,,,,
#SEGMENT:                    ,S1-5/5                          ,,99.0591,,
,,,19.4918,,
##Temp./øC,Time/min,DTA/(mW/mg),Mass/%,Sensit./(æV/mW),Segment
35.748,0.00E+00,4.31E-02,100,9.11E-02,1
35.651,0.6,6.01E-02,99.99238,9.11E-02,1
35.694,1.2,1.31E-03,99.94571,9.11E-02,1
37.523,1.8,-0.19938,99.92667,9.20E-02,1
42.063,2.4,-0.28346,99.93429,9.41E-02,1
48.597,3,-0.39201,99.94952,9.72E-02,1
56.176,3.6,-0.47337,99.9181,0.10085,1
64.15,4.2,-0.55444,99.90571,0.10478,1
72.077,4.8,-0.63264,99.85333,0.10877,1
79.769,5.4,-0.72464,99.76762,0.1127,1
87.191,6,-0.81811,99.68286,0.11656,1
94.415,6.6,-0.90893,99.57524,0.12037,1
101.395,7.2,-0.99673,99.49714,0.1241,2
107.522,7.8,-0.83253,99.39143,0.12741,2
111.836,8.4,-0.6468,99.30095,0.12976,2
114.304,9,-0.52845,99.22381,0.13111,2
115.297,9.6,-0.46115,99.17048,0.13166,2
115.197,10.2,-0.42154,99.12381,0.1316,2
114.308,10.8,-0.38771,99.07333,0.13111,2
112.885,11.4,-0.36262,99.05714,0.13034,2
111.069,12,-0.33779,99.0219,0.12934,2
109.012,12.6,-0.30361,99.0181,0.12822,2
106.788,13.2,-0.28401,99.03238,0.12701,2
104.456,13.8,-0.2613,99.01524,0.12575,2
102.079,14.4,-0.24773,98.99524,0.12446,2
99.66,15,-0.23778,99.00476,0.12316,2
97.408,15.6,-0.24209,98.99238,0.12196,2
95.964,16.2,-0.278,99.00762,0.12119,2
95.572,16.8,-0.2893,99.00381,0.12098,2
95.911,17.4,-0.28985,99,0.12116,2
96.579,18,-0.27921,99,0.12152,2
97.295,18.6,-0.28028,99.00857,0.1219,2
97.916,19.2,-0.27465,99.00571,0.12223,2
98.399,19.8,-0.28379,99.01333,0.12249,2
98.771,20.4,-0.28139,98.99143,0.12269,2
99.046,21,-0.29075,98.99429,0.12284,2
99.264,21.6,-0.29338,98.99905,0.12295,2
99.436,22.2,-0.29509,99.03048,0.12304,3
99.548,22.8,-0.31429,98.99714,0.1231,3
99.645,23.4,-0.35282,99.07429,0.12316,3
99.713,24,-0.36528,99.0781,0.12319,3
99.779,24.6,-0.35165,99.06952,0.12323,3
99.846,25.2,-0.34286,99.07524,0.12326,3
99.904,25.8,-0.33602,99.09714,0.12329,3
99.93,26.4,-0.33597,99.08476,0.12331,3
99.961,27,-0.33303,99.09238,0.12333,3
100.188,27.6,-0.4436,99.08857,0.12345,4
102.259,28.2,-0.84487,99.08667,0.12456,4
106.851,28.8,-1.28377,99.06857,0.12704,4
113.299,29.4,-1.6677,99.05905,0.13056,4
120.807,30,-1.92139,99.02476,0.1347,4
128.717,30.6,-2.08804,98.99333,0.13911,4
136.573,31.2,-2.21275,98.99238,0.14354,4
144.159,31.8,-2.30199,98.92381,0.14785,4
151.429,32.4,-2.40103,98.88286,0.15202,4
158.413,33,-2.50615,98.86952,0.15604,4
165.134,33.6,-2.61481,98.79524,0.15994,4
171.678,34.2,-2.73646,98.7419,0.16375,4
178.096,34.8,-2.86142,98.6981,0.1675,4
184.453,35.4,-2.99248,98.65333,0.17122,4
190.736,36,-3.12475,98.60952,0.17491,4
196.974,36.6,-3.2593,98.61524,0.17857,4
203.135,37.2,-3.39123,98.5819,0.18219,4
209.266,37.8,-3.53119,98.56095,0.18579,4
215.346,38.4,-3.66714,98.54667,0.18936,4
221.397,39,-3.81272,98.53333,0.1929,4
227.426,39.6,-3.96019,98.5181,0.19642,4
233.435,40.2,-4.10951,98.50286,0.19991,4
239.437,40.8,-4.25996,98.50095,0.20339,4
245.431,41.4,-4.42023,98.46571,0.20684,4
251.414,42,-4.58261,98.4581,0.21027,4
257.371,42.6,-4.75736,98.43714,0.21365,4
263.353,43.2,-4.9368,98.40286,0.21703,4
269.316,43.8,-5.12786,98.39333,0.22036,4
275.256,44.4,-5.33291,98.34952,0.22366,4
281.197,45,-5.54491,98.3019,0.22691,4
287.16,45.6,-5.77015,98.24762,0.23015,4
293.096,46.2,-6.02422,98.17048,0.23332,4
299.039,46.8,-6.30421,98.08381,0.23646,4
304.984,47.4,-6.6228,97.97524,0.23956,4
310.937,48,-6.97083,97.8619,0.24261,4
316.904,48.6,-7.35811,97.65905,0.24562,4
322.857,49.2,-7.79622,97.42667,0.24856,4
328.806,49.8,-8.28294,97.16857,0.25145,4
334.764,50.4,-8.81272,96.83714,0.25429,4
340.717,51,-9.37769,96.43238,0.25706,4
346.665,51.6,-9.97669,95.94095,0.25976,4
352.613,52.2,-10.58734,95.41714,0.2624,4
358.57,52.8,-11.2097,94.76286,0.26497,4
364.524,53.4,-11.85891,94.00381,0.26747,4
370.472,54,-12.53182,93.12,0.26989,4
376.428,54.6,-13.21815,92.18191,0.27224,4
382.38,55.2,-13.91974,91.08095,0.27452,4
388.341,55.8,-14.66595,89.87619,0.27671,4
394.304,56.4,-15.46097,88.52286,0.27882,4
400.271,57,-16.31271,86.86762,0.28085,4
406.225,57.6,-17.23024,85.13524,0.28279,4
412.194,58.2,-18.14104,83.21714,0.28464,4
418.168,58.8,-19.09087,81.12,0.28641,4
424.133,59.4,-20.01129,78.74571,0.28808,4
430.095,60,-20.85272,76.20381,0.28965,4
436.063,60.6,-21.61598,73.52952,0.29113,4
442.022,61.2,-22.28344,70.6419,0.29251,4
447.968,61.8,-22.81591,67.62095,0.2938,4
453.924,62.4,-23.31914,64.59524,0.29498,4
459.868,63,-23.70472,61.31143,0.29606,4
465.821,63.6,-24.01901,58.03143,0.29705,4
471.775,64.2,-24.30798,54.64857,0.29793,4
477.723,64.8,-24.57946,51.21048,0.29871,4
483.676,65.4,-24.79126,47.80952,0.29938,4
489.62,66,-25.01482,44.29333,0.29995,4
495.563,66.6,-25.19678,40.83619,0.30042,4
501.511,67.2,-25.30584,37.31524,0.30078,4
507.471,67.8,-25.30208,33.84286,0.30103,4
513.418,68.4,-25.18548,30.42667,0.30118,4
519.373,69,-24.7118,27.17905,0.30123,4
525.314,69.6,-23.57397,24.09619,0.30117,4
531.205,70.2,-19.27462,21.72953,0.30101,4
536.962,70.8,-11.28776,21.01809,0.30075,4
542.75,71.4,-8.5556,20.92571,0.30039,4
548.734,72,-7.8876,20.83905,0.29991,4
554.766,72.6,-7.75426,20.78572,0.29933,4
560.823,73.2,-7.77227,20.79143,0.29863,4
566.874,73.8,-7.83628,20.74381,0.29784,4
572.908,74.4,-7.91895,20.72286,0.29694,4
578.928,75,-8.01013,20.68095,0.29593,4
584.954,75.6,-8.09584,20.66477,0.29483,4
590.957,76.2,-8.19377,20.63048,0.29363,4
596.97,76.8,-8.2807,20.56096,0.29233,4
602.974,77.4,-8.35886,20.45047,0.29094,4
608.973,78,-8.4401,20.35905,0.28945,4
614.968,78.6,-8.52823,20.21238,0.28787,4
620.97,79.2,-8.62848,20.06666,0.28619,4
626.969,79.8,-8.72637,19.98286,0.28443,4
632.971,80.4,-8.80215,19.90667,0.28257,4
638.964,81,-8.86375,19.82286,0.28064,4
644.969,81.6,-8.88631,19.75905,0.27861,4
650.965,82.2,-8.8532,19.64857,0.27651,4
656.953,82.8,-8.73743,19.51238,0.27433,4
662.944,83.4,-8.47266,19.38857,0.27207,4
668.929,84,-7.95277,19.27143,0.26973,4
674.923,84.6,-7.21529,19.14858,0.26732,4
680.899,85.2,-6.51628,18.97238,0.26485,4
686.884,85.8,-5.99811,18.90762,0.2623,4
692.888,86.4,-5.5878,18.8019,0.25969,4
698.883,87,-5.26991,18.8381,0.25701,4
704.887,87.6,-5.03086,18.79333,0.25426,4
710.883,88.2,-4.84303,18.74286,0.25147,4
716.889,88.8,-4.68131,18.73143,0.24861,4
722.891,89.4,-4.52937,18.72952,0.2457,4
728.891,90,-4.34966,18.71524,0.24274,4
734.903,90.6,-4.17288,18.64762,0.23973,4
740.903,91.2,-4.02247,18.66286,0.23668,4
746.899,91.8,-3.90856,18.64571,0.23358,4
752.904,92.4,-3.8367,18.62381,0.23045,4
758.912,93,-3.78661,18.60572,0.22727,4
764.917,93.6,-3.74304,18.59238,0.22407,4
770.932,94.2,-3.71014,18.57619,0.22082,4
776.928,94.8,-3.69025,18.54,0.21756,4
782.933,95.4,-3.66751,18.52571,0.21427,4
788.943,96,-3.6541,18.52571,0.21095,4
794.938,96.6,-3.64162,18.43524,0.20762,4
800.941,97.2,-3.65012,18.44571,0.20427,4
806.967,97.8,-3.65407,18.43333,0.20088,4
812.954,98.4,-3.66342,18.43143,0.19751,4
818.963,99,-3.68885,18.4381,0.19412,4
824.987,99.6,-3.72299,18.39143,0.19071,4
830.988,100.2,-3.75694,18.36381,0.1873,4
837.002,100.8,-3.77809,18.34952,0.18389,4
842.998,101.4,-3.82494,18.36,0.18049,4
849.004,102,-3.87695,18.32857,0.17708,4
855.018,102.6,-3.93386,18.34666,0.17368,4
861.026,103.2,-3.99974,18.25524,0.17028,4
867.032,103.8,-4.06521,18.26095,0.16689,4
873.036,104.4,-4.144,18.24286,0.16352,4
879.04,105,-4.22131,18.30667,0.16016,4
885.029,105.6,-4.31798,18.36572,0.15682,4
891.051,106.2,-4.41036,18.25047,0.15348,4
897.061,106.8,-4.51401,18.21238,0.15017,4
899.916,107.4975,-2.75907,18.19143,0.1486,5
888.973,108.2475,-0.55432,18.18857,0.15463,5
872.805,108.9975,-0.10039,18.22381,0.16365,5
856.349,109.7475,-5.16E-02,18.42381,0.17292,5
840.217,110.4975,-6.21E-02,18.24095,0.18207,5
824.262,111.2475,-7.85E-02,18.26762,0.19112,5
808.418,111.9975,-7.91E-02,18.14762,0.20007,5
792.702,112.7475,-0.10203,18.27714,0.20887,5
777.084,113.4975,-0.12098,18.22,0.21748,5
761.553,114.2475,-0.16076,18.30381,0.22587,5
746.103,114.9975,-0.17959,18.21429,0.234,5
730.716,115.7475,-0.1979,18.25143,0.24183,5
715.4,116.4975,-0.212,18.22953,0.24932,5
700.123,117.2475,-0.22422,18.29523,0.25645,5
684.901,117.9975,-0.24293,18.30858,0.26316,5
669.71,118.7475,-0.25672,18.26476,0.26942,5
654.575,119.4975,-0.2682,18.20571,0.2752,5
639.455,120.2475,-0.28481,18.22572,0.28047,5
624.36,120.9975,-0.2997,18.25619,0.28521,5
609.287,121.7475,-0.30938,18.23905,0.28937,5
594.234,122.4975,-0.32999,18.27143,0.29294,5
579.172,123.2475,-0.33515,18.26857,0.29589,5
564.132,123.9975,-0.34891,18.27048,0.29821,5
549.088,124.7475,-0.36284,18.27524,0.29988,5
534.073,125.4975,-0.37943,18.28,0.30089,5
519.076,126.2475,-0.39441,18.29142,0.30123,5
504.079,126.9975,-0.40434,18.28381,0.3009,5
489.095,127.7475,-0.4172,18.29429,0.2999,5
474.095,128.4975,-0.4299,18.30667,0.29824,5
459.106,129.2475,-0.44654,18.30857,0.29593,5
444.099,129.9975,-0.46079,18.28476,0.29297,5
429.116,130.7475,-0.47389,18.2819,0.2894,5
414.142,131.4975,-0.48708,18.30762,0.28523,5
399.163,132.2475,-0.50509,18.30572,0.28048,5
384.257,132.9975,-0.52167,18.31619,0.27522,5
369.557,133.7475,-0.53931,18.32572,0.26953,5
355.233,134.4975,-0.54885,18.33334,0.26354,5
341.399,135.2475,-0.55553,18.30286,0.25737,5
328.095,135.9975,-0.57033,18.30095,0.25111,5
315.342,136.7475,-0.57327,18.35143,0.24483,5
303.13,137.4975,-0.57728,18.2981,0.2386,5
291.459,138.2475,-0.57821,18.30667,0.23245,5
280.268,138.9975,-0.57471,18.32762,0.22641,5
269.532,139.7475,-0.57341,18.33143,0.22049,5
259.254,140.4975,-0.56497,18.32857,0.21472,5
249.366,141.2475,-0.5534,18.3581,0.2091,5
239.904,141.9975,-0.5413,18.3019,0.20366,5
230.823,142.7475,-0.52444,18.33904,0.1984,5
222.09,143.4975,-0.5167,18.3,0.19331,5
213.711,144.2475,-0.49919,18.33143,0.1884,5
205.635,144.9975,-0.48744,18.34952,0.18366,5
197.882,145.7475,-0.46793,18.33524,0.17911,5
190.434,146.4975,-0.45512,18.36,0.17473,5
183.268,147.2475,-0.43702,18.35238,0.17053,5
176.392,147.9975,-0.4104,18.35904,0.1665,5
169.81,148.7475,-0.40108,18.38952,0.16266,5
163.496,149.4975,-0.37663,18.36762,0.15899,5
157.407,150.2475,-0.35838,18.40381,0.15546,5
155.343,150.51,-0.35806,18.36667,0.15427,5