File: cffp/char_NF_reground_2_11_10.csv
#FILE:                       ,Char_NF_reground_2_11_10.dsu  ,,,,,,,,,,,
#FORMAT:                     ,NETZSCH5                      ,,,,,,,,,,,
#IDENTITY:                   ,Char NF                       ,,,,,,,,,,,
#DECIMAL:                    ,POINT                         ,,,,,,,,,,,
#SEPARATOR:                  ,COMMA                         ,,,,,,,,,,,
#MTYPE:                      ,DTA                           ,,,,,,,,,,,
#MSUBTYPE:                   ,                              ,,,,,,,,,,,
#INSTRUMENT:                 ,NETZSCH STA 449 C             ,,,,,,,,,,,
#PROJECT:                    ,Torrefaction                  ,,,,,,,,,,,
#DATE/TIME:                  ,02/11/2010 12:33,,,,,,,,,,,
#CORR. FILE:                 ,buoyancy_drying_13_10_10.bsu  ,,,,,,,,,,,
#LABORATORY:                 ,Sustainable Research Energ    ,,,,,,,,,,,
#OPERATOR:                   ,A Saddawi                     ,,,,,,,,,,,
#REMARK:                     ,                              ,,,,,,,,,,,
#SAMPLE:                     ,nonisoth oxid with init drying,,,,,,,,,,,
#SAMPLE MASS /mg:            ,9.98,,,,,,,,,,,
#MATERIAL:                   ,char                          ,,,,,,,,,,,
#REFERENCE:                  ,Alumina                       ,,,,,,,,,,,
#REFERENCE MASS /mg:         ,0,,,,,,,,,,,
#TYPE OF CRUCIBLE:           ,DTA/TG crucible Al2O3         ,,,,,,,,,,,
#SAMPLE CRUCIBLE MASS /mg:   ,0,,,,,,,,,,,
#REFERENCE CRUCIBLE MASS /mg:,0,,,,,,,,,,,
#CORR. CODE:                 ,20,,,,,,,,,,,
#EXO:                        ,-1,,,,,,,,,,,
#RANGE:                      ,30.0....900.0/0.0....10.0K/min,,,,,,,,,,,
#SEGMENT:                    ,S1-4/4                        ,,,,,,,,,,,
,,,,,,,,,,,,
##Temp./øC,Time/min,DTA/(mW/mg),Mass/%,DTG/(%/min),Sensit./(æV/mW),Segment,,,,,,
45.437,0.00E+00,-0.37442,100,-3.17E-02,9.57E-02,1,,,,,,
44.934,0.54,-0.37011,99.96894,-6.07E-02,9.54E-02,1,,,,,,
44.462,1.08,-0.61041,99.90281,-0.21415,9.52E-02,1,,,,,,
44.011,1.62,-1.78129,99.8016,-0.19903,9.50E-02,1,,,,,,
43.606,2.16,-3.15238,99.72345,-6.34E-02,9.48E-02,1,,,,,,
44.57,2.7,-3.6618,99.71944,6.62E-02,9.53E-02,1,,,,,,
48.065,3.24,-3.05486,99.73848,2.91E-02,9.69E-02,1,,,,,,
53.567,3.78,-2.20748,99.7485,3.41E-02,9.96E-02,1,,,,,,
60.328,4.32,-1.52658,99.74048,-5.27E-02,0.10289,1,,,,,,
67.638,4.86,-1.05702,99.71242,-6.87E-02,0.10653,1,,,,,,
75.067,5.4,-0.80746,99.66333,-0.11061,0.11029,1,,,,,,
82.385,5.94,-0.74566,99.59519,-0.13199,0.11405,1,,,,,,
89.53,6.48,-0.79435,99.52004,-9.22E-02,0.11778,1,,,,,,
96.36,7.02,-0.87798,99.43687,-0.16421,0.1214,2,,,,,,
102.793,7.56,-0.78552,99.36473,-0.12377,0.12485,2,,,,,,
107.803,8.1,-0.47524,99.2986,-0.10529,0.12756,2,,,,,,
111.152,8.64,-0.212,99.24549,-0.19224,0.12939,2,,,,,,
113.053,9.18,-2.88E-03,99.2024,-6.93E-02,0.13043,2,,,,,,
113.802,9.72,0.13785,99.17335,-6.49E-02,0.13084,2,,,,,,
113.704,10.26,0.2241,99.1503,-3.01E-02,0.13078,2,,,,,,
112.971,10.8,0.27378,99.13026,-2.31E-02,0.13038,2,,,,,,
111.789,11.34,0.31859,99.12124,-5.16E-03,0.12974,2,,,,,,
110.277,11.88,0.34201,99.11423,7.92E-03,0.12891,2,,,,,,
108.537,12.42,0.35433,99.10521,7.19E-03,0.12796,2,,,,,,
106.637,12.96,0.35623,99.1022,-1.06E-02,0.12693,2,,,,,,
104.613,13.5,0.34938,99.1022,1.69E-03,0.12583,2,,,,,,
102.544,14.04,0.32941,99.10421,-1.64E-02,0.12471,2,,,,,,
100.432,14.58,0.32331,99.10421,-1.28E-03,0.12358,2,,,,,,
98.362,15.12,0.30579,99.11022,2.46E-02,0.12247,2,,,,,,
96.798,15.66,0.24919,99.11623,6.22E-03,0.12163,2,,,,,,
96.1,16.2,0.14151,99.10721,1.16E-02,0.12126,2,,,,,,
96.12,16.74,4.75E-02,99.11323,1.51E-02,0.12127,2,,,,,,
96.548,17.28,-2.58E-02,99.11623,-2.17E-02,0.1215,2,,,,,,
97.129,17.82,-5.35E-02,99.11122,2.01E-02,0.12181,2,,,,,,
97.697,18.36,-6.26E-02,99.11423,-2.05E-02,0.12211,2,,,,,,
98.19,18.9,-6.24E-02,99.11623,1.58E-02,0.12238,2,,,,,,
98.582,19.44,-4.39E-02,99.11723,2.06E-03,0.12259,2,,,,,,
98.875,19.98,-3.57E-02,99.11423,-8.48E-03,0.12274,2,,,,,,
99.121,20.52,-2.45E-02,99.11122,1.88E-02,0.12288,2,,,,,,
99.301,21.06,-1.63E-02,99.11222,9.08E-03,0.12297,2,,,,,,
99.444,21.6,-1.22E-02,99.11323,1.88E-02,0.12305,2,,,,,,
99.573,22.14,-3.05E-03,99.11623,-5.31E-02,0.12312,3,,,,,,
99.672,22.68,-6.10E-03,99.1012,3.93E-02,0.12317,3,,,,,,
99.743,23.22,-1.42E-02,99.1493,5.39E-02,0.12321,3,,,,,,
99.79,23.76,-1.93E-02,99.17635,4.35E-02,0.12323,3,,,,,,
99.839,24.3,-1.22E-02,99.19038,1.01E-02,0.12326,3,,,,,,
99.885,24.84,-9.14E-03,99.19138,-3.16E-02,0.12329,3,,,,,,
99.919,25.38,-4.06E-03,99.1994,-1.35E-02,0.1233,3,,,,,,
99.952,25.92,2.03E-03,99.2004,2.36E-02,0.12332,3,,,,,,
99.976,26.46,1.02E-03,99.2014,1.82E-02,0.12333,3,,,,,,
99.984,27,1.02E-03,99.20341,1.61E-02,0.12334,3,,,,,,
100.143,27.54,-9.74E-02,99.2014,-6.79E-03,0.12342,4,,,,,,
101.756,28.08,-0.60161,99.19439,-2.12E-03,0.12429,4,,,,,,
105.457,28.62,-1.23279,99.18637,7.19E-03,0.12629,4,,,,,,
110.83,29.16,-1.81366,99.17635,-2.92E-02,0.12921,4,,,,,,
117.274,29.7,-2.25217,99.16633,-5.80E-02,0.13275,4,,,,,,
124.217,30.24,-2.52887,99.1513,-2.90E-02,0.1366,4,,,,,,
131.274,30.78,-2.68858,99.13427,-8.49E-03,0.14055,4,,,,,,
138.236,31.32,-2.77144,99.11122,-6.52E-02,0.14448,4,,,,,,
144.974,31.86,-2.82475,99.08717,-3.00E-02,0.14832,4,,,,,,
151.467,32.4,-2.88165,99.06313,-3.70E-02,0.15204,4,,,,,,
157.718,32.94,-2.94129,99.03507,-3.50E-02,0.15564,4,,,,,,
163.782,33.48,-3.02039,99.00902,-4.97E-02,0.15916,4,,,,,,
169.694,34.02,-3.11213,98.98998,-2.84E-02,0.16259,4,,,,,,
175.534,34.56,-3.20971,98.97194,-5.01E-02,0.166,4,,,,,,
181.259,35.1,-3.30893,98.9499,-4.12E-02,0.16935,4,,,,,,
186.958,35.64,-3.42334,98.93387,-5.11E-02,0.17269,4,,,,,,
192.603,36.18,-3.53327,98.92184,-3.46E-02,0.176,4,,,,,,
198.193,36.72,-3.64946,98.90681,-2.34E-02,0.17929,4,,,,,,
203.728,37.26,-3.76902,98.89078,-2.92E-03,0.18254,4,,,,,,
209.237,37.8,-3.8807,98.88076,-3.24E-02,0.18578,4,,,,,,
214.717,38.34,-4.01485,98.86774,-2.50E-02,0.18899,4,,,,,,
220.172,38.88,-4.14039,98.8517,-2.51E-02,0.19218,4,,,,,,
225.604,39.42,-4.26938,98.83768,-6.73E-04,0.19535,4,,,,,,
231.016,39.96,-4.41229,98.82365,-2.54E-02,0.19851,4,,,,,,
236.423,40.5,-4.54489,98.80762,-1.23E-02,0.20165,4,,,,,,
241.82,41.04,-4.69956,98.79459,-1.90E-02,0.20476,4,,,,,,
247.21,41.58,-4.83197,98.77455,-3.51E-02,0.20786,4,,,,,,
252.592,42.12,-4.98357,98.75852,-4.44E-02,0.21094,4,,,,,,
257.963,42.66,-5.13846,98.73046,-5.34E-02,0.21399,4,,,,,,
263.336,43.2,-5.29756,98.7024,-4.52E-02,0.21702,4,,,,,,
268.7,43.74,-5.46665,98.67234,-6.20E-02,0.22002,4,,,,,,
274.059,44.28,-5.63864,98.63828,-4.63E-02,0.223,4,,,,,,
279.42,44.82,-5.82119,98.5992,-9.68E-02,0.22594,4,,,,,,
284.76,45.36,-6.00831,98.5521,-5.57E-02,0.22885,4,,,,,,
290.096,45.9,-6.21866,98.50601,-0.11073,0.23172,4,,,,,,
295.451,46.44,-6.43143,98.43988,-0.15451,0.23457,4,,,,,,
300.795,46.98,-6.66135,98.36774,-0.1437,0.23738,4,,,,,,
306.154,47.52,-6.90082,98.29259,-0.18915,0.24016,4,,,,,,
311.506,48.06,-7.15318,98.1994,-0.18964,0.2429,4,,,,,,
316.853,48.6,-7.41533,98.09319,-0.18701,0.24559,4,,,,,,
322.199,49.14,-7.68535,97.96894,-0.27851,0.24824,4,,,,,,
327.572,49.68,-7.97914,97.83166,-0.26084,0.25086,4,,,,,,
332.914,50.22,-8.28619,97.66834,-0.31495,0.25341,4,,,,,,
338.259,50.76,-8.60436,97.48397,-0.37332,0.25592,4,,,,,,
343.623,51.3,-8.93381,97.27755,-0.36691,0.25839,4,,,,,,
348.983,51.84,-9.27626,97.04409,-0.42759,0.2608,4,,,,,,
354.329,52.38,-9.63132,96.76854,-0.52123,0.26315,4,,,,,,
359.694,52.92,-9.99842,96.47295,-0.57621,0.26545,4,,,,,,
365.047,53.46,-10.38037,96.13928,-0.68679,0.26769,4,,,,,,
370.412,54,-10.77813,95.76252,-0.72996,0.26987,4,,,,,,
375.764,54.54,-11.20219,95.33968,-0.80794,0.27199,4,,,,,,
381.129,55.08,-11.64227,94.88677,-0.89202,0.27405,4,,,,,,
386.499,55.62,-12.11121,94.35872,-1.02443,0.27604,4,,,,,,
391.852,56.16,-12.6078,93.77756,-1.09313,0.27796,4,,,,,,
397.225,56.7,-13.14473,93.12525,-1.28188,0.27983,4,,,,,,
402.576,57.24,-13.71966,92.3998,-1.40235,0.28161,4,,,,,,
407.954,57.78,-14.33821,91.57816,-1.60031,0.28333,4,,,,,,
413.319,58.32,-15.00427,90.65531,-1.88272,0.28498,4,,,,,,
418.679,58.86,-15.71835,89.62525,-2.00112,0.28655,4,,,,,,
424.05,59.4,-16.4822,88.46493,-2.26014,0.28805,4,,,,,,
429.431,59.94,-17.27799,87.16533,-2.50586,0.28948,4,,,,,,
434.796,60.48,-18.08481,85.73046,-4.48305,0.29083,4,,,,,,
440.164,61.02,-18.87162,84.03006,-2.94201,0.29209,4,,,,,,
445.539,61.56,-19.5996,82.29459,-3.4268,0.29328,4,,,,,,
450.906,62.1,-20.25936,80.46994,-3.57244,0.29439,4,,,,,,
456.279,62.64,-20.834,78.51202,-3.57199,0.29542,4,,,,,,
461.646,63.18,-21.34268,76.46493,-3.88021,0.29637,4,,,,,,
467.013,63.72,-21.80066,74.33868,-4.11016,0.29723,4,,,,,,
472.389,64.26,-22.2289,72.13026,-4.19002,0.29801,4,,,,,,
477.733,64.8,-22.67749,69.8487,-4.42846,0.29871,4,,,,,,
483.108,65.34,-23.15746,67.4519,-4.45254,0.29932,4,,,,,,
488.469,65.88,-23.68264,64.9509,-4.77165,0.29985,4,,,,,,
493.844,66.42,-24.24616,62.32565,-5.12923,0.30029,4,,,,,,
499.218,66.96,-24.84466,59.55811,-5.07598,0.30065,4,,,,,,
504.585,67.5,-25.44859,56.6533,-5.50908,0.30092,4,,,,,,
509.96,68.04,-26.05716,53.57715,-5.88329,0.30111,4,,,,,,
515.328,68.58,-26.64724,50.38477,-5.96898,0.30121,4,,,,,,
520.712,69.12,-27.17275,47.04509,-6.40361,0.30123,4,,,,,,
526.083,69.66,-27.60714,43.58216,-6.45915,0.30115,4,,,,,,
531.437,70.2,-27.90652,40.03106,-6.29738,0.301,4,,,,,,
536.788,70.74,-27.9997,36.45391,-6.72494,0.30076,4,,,,,,
542.145,71.28,-27.83333,32.91583,-6.40546,0.30043,4,,,,,,
547.497,71.82,-27.43137,29.40681,-6.37052,0.30002,4,,,,,,
552.852,72.36,-26.98239,25.97895,-6.31028,0.29953,4,,,,,,
558.208,72.9,-26.5091,22.60922,-6.36376,0.29895,4,,,,,,
563.57,73.44,-26.00115,19.31763,-6.03917,0.29829,4,,,,,,
568.922,73.98,-25.2848,16.10721,-5.84995,0.29754,4,,,,,,
574.264,74.52,-23.13966,13.1533,-5.13744,0.29672,4,,,,,,
579.477,75.06,-11.06024,11.82264,-0.20188,0.29584,4,,,,,,
584.572,75.6,-4.95856,11.78757,-0.25463,0.2949,4,,,,,,
589.851,76.14,-3.28491,11.77454,-6.16E-02,0.29386,4,,,,,,
595.275,76.68,-2.74713,11.74348,-8.16E-02,0.29271,4,,,,,,
600.749,77.22,-2.56891,11.69639,-4.64E-02,0.29147,4,,,,,,
606.206,77.76,-2.50934,11.66532,-6.27E-02,0.29015,4,,,,,,
611.67,78.3,-2.48463,11.63226,-2.24E-02,0.28875,4,,,,,,
617.118,78.84,-2.44068,11.59819,-6.56E-02,0.28728,4,,,,,,
622.547,79.38,-2.378,11.56212,-8.82E-02,0.28574,4,,,,,,
627.98,79.92,-2.29101,11.51803,-7.49E-02,0.28412,4,,,,,,
633.396,80.46,-2.17872,11.46192,-8.10E-02,0.28244,4,,,,,,
638.823,81,-2.04107,11.4018,-0.18829,0.28068,4,,,,,,
644.24,81.54,-1.89316,11.33266,-0.10519,0.27886,4,,,,,,
649.647,82.08,-1.69984,11.26152,-0.17469,0.27698,4,,,,,,
655.063,82.62,-1.50652,11.17335,-0.12715,0.27502,4,,,,,,
660.473,83.16,-1.33001,11.09318,-0.18342,0.27301,4,,,,,,
665.88,83.7,-1.22,11.01904,-4.11E-02,0.27093,4,,,,,,
671.287,84.24,-1.17006,10.97194,-3.66E-02,0.26879,4,,,,,,
676.703,84.78,-1.1332,10.93988,-7.01E-02,0.26659,4,,,,,,
682.113,85.32,-1.11823,10.91182,-9.50E-03,0.26434,4,,,,,,
687.516,85.86,-1.11325,10.88877,-0.11502,0.26203,4,,,,,,
692.925,86.4,-1.11325,10.87975,-1.68E-02,0.25967,4,,,,,,
698.316,86.94,-1.11442,10.86272,-6.86E-03,0.25726,4,,,,,,
703.721,87.48,-1.12469,10.84669,-7.97E-02,0.2548,4,,,,,,
709.128,88.02,-1.13588,10.82966,3.07E-03,0.25229,4,,,,,,
714.528,88.56,-1.15251,10.81563,-1.62E-02,0.24974,4,,,,,,
719.927,89.1,-1.16715,10.79358,-5.70E-02,0.24714,4,,,,,,
725.336,89.64,-1.18079,10.76653,-3.97E-02,0.2445,4,,,,,,
730.742,90.18,-1.20218,10.7525,-3.71E-02,0.24182,4,,,,,,
736.137,90.72,-1.22054,10.73246,2.91E-03,0.2391,4,,,,,,
741.545,91.26,-1.24484,10.71242,-3.81E-02,0.23635,4,,,,,,
746.95,91.8,-1.26829,10.69939,-2.10E-02,0.23356,4,,,,,,
752.356,92.34,-1.29085,10.68437,-3.33E-02,0.23074,4,,,,,,
757.76,92.88,-1.32569,10.66232,-2.00E-02,0.22788,4,,,,,,
763.164,93.42,-1.35155,10.6523,-3.18E-02,0.22501,4,,,,,,
767.655,93.87,-1.37633,10.64529,-2.10E-02,0.22259,4,,,,,,