File: cffp/char_NF_23_06_10.csv
#FILE:                       ,char_NF_23_06_10.dsu
#FORMAT:                     ,NETZSCH5
#IDENTITY:                   ,char NF
#DECIMAL:                    ,POINT
#SEPARATOR:                  ,COMMA
#MTYPE:                      ,DTA
#MSUBTYPE:                   ,
#INSTRUMENT:                 ,NETZSCH STA 449 C
#PROJECT:                    ,Torrefaction
#DATE/TIME:                  ,23/06/2010 16:36:56
#CORR. FILE:                 ,char_GF_23_06_10.bsu
#LABORATORY:                 ,Sustainable Research Energ
#OPERATOR:                   ,EMF
#REMARK:                     ,
#SAMPLE:                     ,nonisoth oxid with init drying
#SAMPLE MASS /mg:            ,10.330
#MATERIAL:                   ,Alumina
#REFERENCE:                  ,Alumina
#REFERENCE MASS /mg:         ,0.000
#TYPE OF CRUCIBLE:           ,DTA/TG crucible Al2O3
#SAMPLE CRUCIBLE MASS /mg:   ,0.000
#REFERENCE CRUCIBLE MASS /mg:,0.000
#CORR. CODE:                 ,020
#EXO:                        ,-1
#RANGE:                      ,30.0....900.0/-20.0....10.0K/min
#SEGMENT:                    ,S1-5/5

##Temp./øC,Time/min,DTA/(mW/mg),Segment
 34.34900,0.0000e+000, 4.8146e-002,1
 34.35200,    0.49000, 5.4832e-002,1
 34.40300,    0.98000, 5.7493e-002,1
 35.36900,    1.47000,    -0.14236,1
 38.15100,    1.96000,    -0.40798,1
 42.58200,    2.45000,    -0.65558,1
 48.10700,    2.94000,    -0.88376,1
 54.29000,    3.43000,    -1.03777,1
 60.78900,    3.92000,    -1.12658,1
 67.29000,    4.41000,    -1.19469,1
 73.70200,    4.90000,    -1.23998,1
 79.92200,    5.39000,    -1.28647,1
 85.94700,    5.88000,    -1.33215,1
 91.87100,    6.37000,    -1.37153,1
 97.60000,    6.86000,    -1.41069,1
103.096,    7.35000,    -1.40160,2
107.903,    7.84000,    -1.21278,2
111.489,    8.33000,    -0.98807,2
113.827,    8.82000,    -0.78235,2
115.095,    9.31000,    -0.61631,2
115.521,    9.80000,    -0.48666,2
115.29,   10.29000,    -0.38235,2
114.568,   10.78000,    -0.30699,2
113.468,   11.27000,    -0.23802,2
112.101,   11.76000,    -0.19003,2
110.534,   12.25000,    -0.15003,2
108.827,   12.74000,    -0.11428,2
107.018,   13.23000,-8.7566e-002,2
105.15,   13.72000,-7.5796e-002,2
103.229,   14.21000,-5.5142e-002,2
101.288,   14.70000,-3.5120e-002,2
 99.32800,   15.19000,-1.0823e-002,2
 97.47300,   15.68000,-2.0830e-002,2
 96.06400,   16.17000,-8.5832e-002,2
 95.37800,   16.66000,    -0.16618,2
 95.34900,   17.15000,    -0.23728,2
 95.72400,   17.64000,    -0.27987,2
 96.30000,   18.13000,    -0.30110,2
 96.93800,   18.62000,    -0.31318,2
 97.51100,   19.11000,    -0.30645,2
 97.99200,   19.60000,    -0.29986,2
 98.38300,   20.09000,    -0.29342,2
 98.69100,   20.58000,    -0.27724,2
 98.94000,   21.07000,    -0.27694,2
 99.13700,   21.56000,    -0.27178,2
 99.28800,   22.05000,    -0.27062,3
 99.42800,   22.54000,    -0.26455,3
 99.51700,   23.03000,    -0.29394,3
 99.59400,   23.52000,    -0.31055,3
 99.66200,   24.01000,    -0.31734,3
 99.72800,   24.50000,    -0.30251,3
 99.78400,   24.99000,    -0.29066,3
 99.83900,   25.48000,    -0.29059,3
 99.88100,   25.97000,    -0.27876,3
 99.91100,   26.46000,    -0.28755,3
 99.94400,   26.95000,    -0.27770,3
100.016,   27.44000,    -0.31881,4
100.95,   27.93000,    -0.59889,4
103.578,   28.42000,    -1.02874,4
107.796,   28.91000,    -1.48938,4
113.171,   29.40000,    -1.89079,4
119.254,   29.89000,    -2.17525,4
125.669,   30.38000,    -2.36362,4
132.127,   30.87000,    -2.48568,4
138.487,   31.36000,    -2.55777,4
144.661,   31.85000,    -2.60817,4
150.615,   32.34000,    -2.65648,4
156.336,   32.83000,    -2.70702,4
161.909,   33.32000,    -2.75294,4
167.326,   33.81000,    -2.81697,4
172.643,   34.30000,    -2.88832,4
177.886,   34.79000,    -2.96559,4
183.064,   35.28000,    -3.04987,4
188.212,   35.77000,    -3.13563,4
193.324,   36.26000,    -3.21946,4
198.396,   36.75000,    -3.31302,4
203.425,   37.24000,    -3.40599,4
208.434,   37.73000,    -3.50342,4
213.422,   38.22000,    -3.59232,4
218.387,   38.71000,    -3.69402,4
223.329,   39.20000,    -3.78931,4
228.243,   39.69000,    -3.89456,4
233.162,   40.18000,    -3.99933,4
238.044,   40.67000,    -4.10775,4
242.94,   41.16000,    -4.21679,4
247.845,   41.65000,    -4.33059,4
252.719,   42.14000,    -4.43975,4
257.602,   42.63000,    -4.56329,4
262.472,   43.12000,    -4.68025,4
267.34,   43.61000,    -4.80412,4
272.209,   44.10000,    -4.93749,4
277.064,   44.59000,    -5.06863,4
281.91,   45.08000,    -5.20809,4
286.764,   45.57000,    -5.35744,4
291.597,   46.06000,    -5.50638,4
296.46,   46.55000,    -5.66673,4
301.31,   47.04000,    -5.84702,4
306.179,   47.53000,    -6.03384,4
311.039,   48.02000,    -6.23630,4
315.904,   48.51000,    -6.45084,4
320.763,   49.00000,    -6.69676,4
325.614,   49.49000,    -6.95654,4
330.473,   49.98000,    -7.24598,4
335.33,   50.47000,    -7.56838,4
340.191,   50.96000,    -7.92155,4
345.049,   51.45000,    -8.28724,4
349.913,   51.94000,    -8.65317,4
354.773,   52.43000,    -8.99905,4
359.612,   52.92000,    -9.32673,4
364.478,   53.41000,    -9.64250,4
369.316,   53.90000,    -9.96471,4
374.185,   54.39000,   -10.34697,4
379.073,   54.88000,   -10.60245,4
383.946,   55.37000,   -10.80263,4
388.789,   55.86000,   -11.14042,4
393.645,   56.35000,   -11.55285,4
398.514,   56.84000,   -12.00431,4
403.366,   57.33000,   -12.47167,4
408.232,   57.82000,   -12.96991,4
413.112,   58.31000,   -13.50780,4
417.985,   58.80000,   -14.09131,4
422.861,   59.29000,   -14.73981,4
427.739,   59.78000,   -15.43568,4
432.626,   60.27000,   -16.13867,4
437.508,   60.76000,   -16.73821,4
442.381,   61.25000,   -17.37512,4
447.244,   61.74000,   -18.04399,4
452.125,   62.23000,   -18.70630,4
456.987,   62.72000,   -19.30166,4
461.864,   63.21000,   -19.83234,4
466.725,   63.70000,   -20.31432,4
471.595,   64.19000,   -20.73669,4
476.458,   64.68000,   -21.11293,4
481.336,   65.17000,   -21.45517,4
486.194,   65.66000,   -21.80171,4
491.068,   66.15000,   -22.20251,4
495.934,   66.64000,   -22.64049,4
500.799,   67.13000,   -23.11981,4
505.681,   67.62000,   -23.61973,4
510.556,   68.11000,   -24.12780,4
515.434,   68.60000,   -24.61943,4
520.314,   69.09000,   -25.07692,4
525.197,   69.58000,   -25.50501,4
530.082,   70.07000,   -25.88673,4
534.948,   70.56000,   -26.19402,4
539.821,   71.05000,   -26.43426,4
544.696,   71.54000,   -26.58846,4
549.554,   72.03000,   -26.62319,4
554.429,   72.52000,   -26.52365,4
559.287,   73.01000,   -26.32808,4
564.157,   73.50000,   -26.01252,4
569.009,   73.99000,   -25.63004,4
573.881,   74.48000,   -25.06119,4
578.727,   74.97000,   -23.69604,4
583.526,   75.46000,   -15.01443,4
588.09,   75.95000,    -6.34406,4
592.8,   76.44000,    -3.99981,4
597.675,   76.93000,    -3.20229,4
602.619,   77.42000,    -2.87192,4
607.587,   77.91000,    -2.70573,4
612.548,   78.40000,    -2.61250,4
617.484,   78.89000,    -2.53790,4
622.425,   79.38000,    -2.44704,4
627.345,   79.87000,    -2.33617,4
632.275,   80.36000,    -2.20538,4
637.198,   80.85000,    -2.06284,4
642.107,   81.34000,    -1.90562,4
647.03,   81.83000,    -1.75220,4
651.933,   82.32000,    -1.57787,4
656.839,   82.81000,    -1.40559,4
661.745,   83.30000,    -1.24593,4
666.66,   83.79000,    -1.13975,4
671.562,   84.28000,    -1.07008,4
676.482,   84.77000,    -1.01548,4
681.375,   85.26000,    -0.97482,4
686.287,   85.75000,    -0.93649,4
691.18,   86.24000,    -0.91207,4
696.091,   86.73000,    -0.88695,4
701.002,   87.22000,    -0.86769,4
705.909,   87.71000,    -0.84916,4
710.822,   88.20000,    -0.82710,4
715.717,   88.69000,    -0.81782,4
720.618,   89.18000,    -0.79280,4
725.527,   89.67000,    -0.77732,4
730.43,   90.16000,    -0.75713,4
735.326,   90.65000,    -0.73611,4
740.226,   91.14000,    -0.72087,4
745.123,   91.63000,    -0.70436,4
750.035,   92.12000,    -0.68863,4
754.93,   92.61000,    -0.66417,4
759.848,   93.10000,    -0.65259,4
764.745,   93.59000,    -0.63376,4
769.65,   94.08000,    -0.61564,4
774.552,   94.57000,    -0.58829,4
779.459,   95.06000,    -0.56927,4
784.367,   95.55000,    -0.54869,4
789.267,   96.04000,    -0.52991,4
794.166,   96.53000,    -0.50485,4
799.074,   97.02000,    -0.47504,4
803.972,   97.51000,    -0.44862,4
808.882,   98.00000,    -0.42514,4
813.782,   98.49000,    -0.38996,4
818.691,   98.98000,    -0.36002,4
823.605,   99.47000,    -0.33997,4
828.507,   99.96000,    -0.30714,4
833.412,  100.45,    -0.29027,4
838.318,  100.94,    -0.26363,4
843.227,  101.43,    -0.23415,4
848.122,  101.92,    -0.20988,4
853.04,  102.41,    -0.19453,4
857.93,  102.9,    -0.17374,4
862.849,  103.39,    -0.15515,4
867.747,  103.88,    -0.13591,4
872.648,  104.37,    -0.11012,4
877.557,  104.86,-9.9220e-002,4
882.466,  105.35,-8.8703e-002,4
887.356,  105.84,-8.1695e-002,4
892.274,  106.33,-7.7606e-002,4
897.177,  106.82,-5.6431e-002,4
900.474,  107.382,    -0.15585,5
893.934,  107.995, 3.9834e-002,5
881.659,  108.608,     0.13115,5
868.168,  109.22,     0.15212,5
854.777,  109.832,     0.12392,5
841.579,  110.445, 8.9440e-002,5
828.526,  111.058, 6.2844e-002,5
815.541,  111.67, 4.1353e-002,5
802.663,  112.282, 1.5476e-002,5
789.865,  112.895,-2.1275e-002,5
777.097,  113.507,-4.6740e-002,5
764.401,  114.12,-6.7962e-002,5
751.783,  114.733,-9.0610e-002,5
739.19,  115.345,    -0.10901,5
726.64,  115.957,    -0.11959,5
714.137,  116.57,    -0.13315,5
701.648,  117.183,    -0.14384,5
689.209,  117.795,    -0.15838,5
676.799,  118.407,    -0.16797,5
664.414,  119.02,    -0.17828,5
652.042,  119.632,    -0.19107,5
639.699,  120.245,    -0.19981,5
627.376,  120.858,    -0.20685,5
615.058,  121.47,    -0.21482,5
602.759,  122.082,    -0.21998,5
590.451,  122.695,    -0.22369,5
578.158,  123.308,    -0.22070,5
565.87,  123.92,    -0.23066,5
553.593,  124.532,    -0.23195,5
541.328,  125.145,    -0.23719,5
529.066,  125.757,    -0.23793,5
516.828,  126.37,    -0.23942,5
504.563,  126.983,    -0.23966,5
492.309,  127.595,    -0.24026,5
480.067,  128.208,    -0.24041,5
467.824,  128.82,    -0.23888,5
455.585,  129.433,    -0.23358,5
443.328,  130.045,    -0.23267,5
431.099,  130.657,    -0.22623,5
418.862,  131.27,    -0.22335,5
406.629,  131.883,    -0.21728,5
394.432,  132.495,    -0.20915,5
382.254,  133.107,    -0.19972,5
370.249,  133.72,    -0.19016,5
358.471,  134.333,    -0.17996,5
347.011,  134.945,    -0.16853,5
335.867,  135.558,    -0.16289,5
325.103,  136.17,    -0.16043,5
314.685,  136.782,    -0.15045,5
304.662,  137.395,    -0.14356,5
294.981,  138.008,    -0.13375,5
285.627,  138.62,    -0.13034,5
276.604,  139.232,    -0.11864,5
267.871,  139.845,    -0.11849,5
259.422,  140.458,    -0.10872,5
251.274,  141.07,    -0.10017,5
243.379,  141.683,-8.6492e-002,5
235.766,  142.295,-8.4172e-002,5
228.382,  142.907,-7.5562e-002,5
221.263,  143.52,-6.9031e-002,5
214.334,  144.133,-5.9617e-002,5
207.629,  144.745,-5.4993e-002,5
201.15,  145.357,-4.0775e-002,5
194.871,  145.97,-3.6165e-002,5
188.783,  146.583,-2.5070e-002,5
182.896,  147.195,-1.4210e-002,5
177.204,  147.808,-4.3482e-003,5
171.706,  148.42, 5.1724e-003,5
166.394,  149.032, 1.3556e-002,5
161.241,  149.645, 1.9185e-002,5
156.259,  150.258, 2.5796e-002,5
154.163,  150.52, 3.3090e-002,5