File: cffp/char_QD_30_06_10.csv
#FILE:                       ,char_QD_30_06_10.dsu
#FORMAT:                     ,NETZSCH5
#IDENTITY:                   ,Char QD
#DECIMAL:                    ,POINT
#SEPARATOR:                  ,COMMA
#MTYPE:                      ,DTA
#MSUBTYPE:                   ,
#INSTRUMENT:                 ,NETZSCH STA 449 C
#PROJECT:                    ,Torrefaction
#DATE/TIME:                  ,30/06/2010 13:26:45
#CORR. FILE:                 ,char_GF_23_06_10.bsu
#LABORATORY:                 ,Sustainable Research Energ
#OPERATOR:                   ,Xiaomian Baxter
#REMARK:                     ,
#SAMPLE:                     ,nonisoth oxid with init drying
#SAMPLE MASS /mg:            ,9.270
#MATERIAL:                   ,char
#REFERENCE:                  ,Alumina
#REFERENCE MASS /mg:         ,0.000
#TYPE OF CRUCIBLE:           ,DTA/TG crucible Al2O3
#SAMPLE CRUCIBLE MASS /mg:   ,0.000
#REFERENCE CRUCIBLE MASS /mg:,0.000
#CORR. CODE:                 ,020
#EXO:                        ,-1
#RANGE:                      ,30.0....900.0/-20.0....10.0K/min
#SEGMENT:                    ,S1-5/5

##Temp./øC,Time/min,DTA/(mW/mg),Mass/%,Sensit./(æV/mW),Segment
 32.11100,0.0000e+000, 6.3314e-002,100,8.9451e-002,1
 32.21200,    0.81000, 5.4241e-002, 99.98382,8.9497e-002,1
 35.21900,    1.62000,    -0.13799, 99.97303,9.0881e-002,1
 42.68000,    2.43000,    -0.34866, 99.95901,9.4366e-002,1
 52.58400,    3.24000,    -0.49529, 99.93743,9.9101e-002,1
 63.27400,    4.05000,    -0.55697, 99.88350,    0.10435,1
 73.80500,    4.86000,    -0.60755, 99.79612,    0.10964,1
 83.86700,    5.67000,    -0.66234, 99.69364,    0.11482,1
 93.52900,    6.48000,    -0.72991, 99.58792,    0.11990,1
102.7,    7.29000,    -0.77039, 99.49622,    0.12480,2
110.128,    8.10000,    -0.37367, 99.41424,    0.12883,2
114.183,    8.91000,-4.2188e-002, 99.35383,    0.13105,2
115.442,    9.72000,     0.12385, 99.31392,    0.13174,2
114.833,   10.53000,     0.21447, 99.27832,    0.13140,2
113.019,   11.34000,     0.24713, 99.26321,    0.13041,2
110.494,   12.15000,     0.26963, 99.24703,    0.12903,2
107.548,   12.96000,     0.26350, 99.25782,    0.12742,2
104.362,   13.77000,     0.25425, 99.25458,    0.12570,2
101.073,   14.58000,     0.23503, 99.24919,    0.12392,2
 97.85600,   15.39000,     0.19311, 99.24919,    0.12220,2
 95.92600,   16.20000,     0.11240, 99.24919,    0.12117,2
 95.80400,   17.01000, 5.6787e-002, 99.25243,    0.12110,2
 96.60900,   17.82000, 5.4368e-002, 99.25135,    0.12153,2
 97.55100,   18.63000, 5.6352e-002, 99.25566,    0.12204,2
 98.29900,   19.44000, 7.8195e-002, 99.23840,    0.12244,2
 98.81800,   20.25000, 9.1204e-002, 99.23840,    0.12271,2
 99.17100,   21.06000,     0.10094, 99.23732,    0.12290,2
 99.41700,   21.87000,     0.10083, 99.23517,    0.12303,2
 99.58700,   22.68000, 9.3089e-002, 99.18447,    0.12313,3
 99.69900,   23.49000, 5.3637e-002, 99.26861,    0.12319,3
 99.77100,   24.30000, 5.6903e-002, 99.29342,    0.12322,3
 99.84500,   25.11000, 7.1106e-002, 99.28371,    0.12326,3
 99.92300,   25.92000, 8.6392e-002, 99.28479,    0.12331,3
 99.97700,   26.73000, 8.0905e-002, 99.29558,    0.12333,3
100.14,   27.54000, 2.1851e-003, 99.29881,    0.12342,4
103.168,   28.35000,    -0.64806, 99.28803,    0.12505,4
110.473,   29.16000,    -1.33573, 99.27184,    0.12902,4
120.324,   29.97000,    -1.76033, 99.24919,    0.13444,4
130.952,   30.78000,    -1.95201, 99.22869,    0.14037,4
141.429,   31.59000,    -2.03514, 99.21036,    0.14630,4
151.341,   32.40000,    -2.10028, 99.16181,    0.15197,4
160.687,   33.21000,    -2.19283, 99.13916,    0.15736,4
169.651,   34.02000,    -2.30838, 99.11435,    0.16257,4
178.321,   34.83000,    -2.46873, 99.08522,    0.16763,4
186.86,   35.64000,    -2.61588, 99.06904,    0.17263,4
195.295,   36.45000,    -2.76541, 99.04531,    0.17759,4
203.619,   37.26000,    -2.94402, 99.01510,    0.18248,4
211.87,   38.07000,    -3.12200, 99.00432,    0.18732,4
220.068,   38.88000,    -3.29944, 98.97627,    0.19212,4
228.229,   39.69000,    -3.48398, 98.95901,    0.19689,4
236.343,   40.50000,    -3.68212, 98.94391,    0.20160,4
244.443,   41.31000,    -3.86736, 98.90939,    0.20627,4
252.504,   42.12000,    -4.06348, 98.87379,    0.21089,4
260.553,   42.93000,    -4.27714, 98.84250,    0.21545,4
268.609,   43.74000,    -4.49099, 98.80798,    0.21997,4
276.644,   44.55000,    -4.72090, 98.75620,    0.22442,4
284.679,   45.36000,    -4.95514, 98.69579,    0.22881,4
292.699,   46.17000,    -5.19678, 98.62891,    0.23311,4
300.719,   46.98000,    -5.45129, 98.53937,    0.23734,4
308.753,   47.79000,    -5.72494, 98.43905,    0.24150,4
316.788,   48.60000,    -6.01845, 98.31392,    0.24556,4
324.824,   49.41000,    -6.32161, 98.16721,    0.24953,4
332.84,   50.22000,    -6.62942, 98.00000,    0.25338,4
340.87,   51.03000,    -6.93237, 97.80043,    0.25713,4
348.887,   51.84000,    -7.22431, 97.58252,    0.26075,4
356.893,   52.65000,    -7.50063, 97.34520,    0.26425,4
364.912,   53.46000,    -7.77076, 97.08846,    0.26763,4
372.942,   54.27000,    -8.03900, 96.80906,    0.27088,4
380.973,   55.08000,    -8.32234, 96.52751,    0.27399,4
389.013,   55.89000,    -8.61882, 96.20712,    0.27695,4
397.053,   56.70000,    -8.94034, 95.86731,    0.27977,4
405.097,   57.51000,    -9.29442, 95.48975,    0.28243,4
413.153,   58.32000,    -9.66424, 95.06580,    0.28493,4
421.202,   59.13000,   -10.07339, 94.58684,    0.28727,4
429.245,   59.94000,   -10.51376, 94.05070,    0.28943,4
437.299,   60.75000,   -10.99751, 93.44444,    0.29143,4
445.363,   61.56000,   -11.53163, 92.72923,    0.29325,4
453.426,   62.37000,   -12.12738, 91.92557,    0.29489,4
461.48,   63.18000,   -12.80548, 90.95793,    0.29634,4
469.554,   63.99000,   -13.56224, 89.82956,    0.29761,4
477.609,   64.80000,   -14.36601, 88.50809,    0.29869,4
485.685,   65.61000,   -15.22603, 86.96548,    0.29959,4
493.739,   66.42000,   -16.13267, 85.20388,    0.30028,4
501.805,   67.23000,   -17.09481, 83.16181,    0.30079,4
509.877,   68.04000,   -18.10602, 80.70982,    0.30111,4
517.949,   68.85000,   -19.07954, 78.01834,    0.30123,4
526.027,   69.66000,   -20.03029, 75.03236,    0.30116,4
534.099,   70.47000,   -20.98604, 71.71737,    0.30089,4
542.17,   71.28000,   -21.94770, 68.04747,    0.30043,4
550.247,   72.09000,   -22.96928, 64.05502,    0.29978,4
558.327,   72.90000,   -24.12928, 59.76160,    0.29893,4
566.404,   73.71000,   -25.99756, 54.29990,    0.29790,4
574.521,   74.52000,   -26.65032, 48.88889,    0.29668,4
582.566,   75.33000,   -27.86419, 42.98058,    0.29528,4
590.619,   76.14000,   -28.94319, 36.71414,    0.29370,4
598.674,   76.95000,   -29.21011, 30.40777,    0.29195,4
606.701,   77.76000,   -28.52125, 24.40669,    0.29002,4
614.645,   78.57000,   -26.08227, 18.83927,    0.28796,4
622.524,   79.38000,   -14.15900, 14.88026,    0.28574,4
630.185,   80.19000,    -2.25115, 14.93636,    0.28345,4
638.251,   81.00000,    -0.60731, 14.67315,    0.28087,4
646.489,   81.81000,    -0.24778, 14.69040,    0.27809,4
654.674,   82.62000,    -0.11859, 14.60518,    0.27517,4
662.854,   83.43000,-6.3928e-002, 14.53291,    0.27210,4
671.01,   84.24000,-4.3125e-002, 14.49946,    0.26890,4
679.169,   85.05000,-2.5387e-002, 14.48328,    0.26557,4
687.294,   85.86000,-1.0288e-002, 14.44553,    0.26213,4
695.433,   86.67000, 2.0859e-003, 14.46602,    0.25856,4
703.571,   87.48000, 1.4814e-002, 14.45847,    0.25487,4
711.674,   88.29000, 3.9740e-002, 14.44229,    0.25109,4
719.78,   89.10000, 6.1091e-002, 14.44553,    0.24721,4
727.904,   89.91000, 8.6484e-002, 14.44769,    0.24323,4
735.994,   90.72000,     0.11783, 14.50810,    0.23918,4
744.111,   91.53000,     0.15835, 14.34628,    0.23503,4
752.243,   92.34000,     0.16067, 14.41208,    0.23079,4
760.328,   93.15000,     0.19049, 14.40454,    0.22652,4
768.44,   93.96000,     0.22760, 14.38188,    0.22217,4
776.542,   94.77000,     0.25511, 14.41748,    0.21777,4
784.657,   95.58000,     0.28951, 14.08523,    0.21332,4
792.778,   96.39000,     0.29704, 14.41748,    0.20882,4
800.873,   97.20000,     0.31417, 14.45416,    0.20430,4
808.986,   98.01000,     0.33753, 14.34520,    0.19975,4
817.096,   98.82000,     0.34061, 14.35599,    0.19517,4
825.207,   99.63000,     0.32829, 14.38943,    0.19059,4
833.315,  100.44,     0.32699, 14.37973,    0.18598,4
841.435,  101.25,     0.32860, 14.39375,    0.18138,4
849.542,  102.06,     0.31274, 14.39159,    0.17678,4
857.64,  102.87,     0.28661, 14.38512,    0.17219,4
865.75,  103.68,     0.27031, 14.39590,    0.16761,4
873.865,  104.49,     0.24975, 14.38619,    0.16305,4
881.96,  105.3,     0.20840, 14.39051,    0.15853,4
890.074,  106.11,     0.20136, 14.39914,    0.15402,4
898.191,  106.92,     0.13074, 14.39375,    0.14955,4
895.314,  107.918,    -0.70666, 14.40022,    0.15113,5
874.75,  108.93,    -0.55992, 14.42503,    0.16256,5
852.593,  109.942,    -0.38362, 14.47897,    0.17505,5
830.917,  110.955,    -0.24904, 14.46063,    0.18734,5
809.505,  111.968,    -0.15955, 13.90831,    0.19946,5
788.296,  112.98,-8.9977e-002, 14.47358,    0.21131,5
767.266,  113.993,-1.6341e-002, 14.47897,    0.22280,5
746.383,  115.005, 5.3626e-002, 14.48221,    0.23385,5
725.645,  116.017,     0.11479, 14.32255,    0.24435,5
704.972,  117.03,     0.15859, 14.49407,    0.25422,5
684.407,  118.043,     0.20173, 14.50162,    0.26337,5
663.894,  119.055,     0.23971, 15.29127,    0.27170,5
643.495,  120.067,     0.25846, 14.50917,    0.27912,5
623.122,  121.08,     0.28662, 14.62028,    0.28557,5
602.776,  122.093,     0.31048, 14.53830,    0.29099,5
582.411,  123.105,     0.33516, 14.56203,    0.29531,5
562.126,  124.118,     0.35284, 14.56311,    0.29847,5
541.828,  125.13,     0.36263, 14.58037,    0.30045,5
521.569,  126.142,     0.37917, 14.57282,    0.30122,5
501.324,  127.155,     0.39274, 14.59224,    0.30077,5
481.092,  128.167,     0.40755, 14.64402,    0.29910,5
460.839,  129.18,     0.42561, 14.62891,    0.29623,5
440.605,  130.192,     0.43657, 14.65265,    0.29219,5
420.36,  131.205,     0.45147, 14.65373,    0.28703,5
400.136,  132.218,     0.45475, 14.67422,    0.28081,5
380.034,  133.23,     0.46076, 14.67854,    0.27363,5
360.364,  134.242,     0.46127, 14.69256,    0.26573,5
341.505,  135.255,     0.46569, 14.70335,    0.25742,5
323.603,  136.268,     0.45611, 14.71090,    0.24893,5
306.7,  137.28,     0.44753, 14.71198,    0.24044,5
290.741,  138.292,     0.44276, 14.72169,    0.23207,5
275.708,  139.305,     0.44265, 14.73571,    0.22390,5
261.479,  140.317,     0.43954, 14.73031,    0.21597,5
248.023,  141.33,     0.41684, 14.75297,    0.20833,5
235.279,  142.343,     0.40389, 14.75728,    0.20098,5
223.226,  143.355,     0.39208, 14.77239,    0.19397,5
211.813,  144.367,     0.37799, 14.78102,    0.18729,5
200.965,  145.38,     0.36894, 14.79072,    0.18092,5
190.697,  146.393,     0.35005, 14.79720,    0.17489,5
180.965,  147.405,     0.34034, 14.80799,    0.16918,5
171.754,  148.417,     0.32930, 14.80475,    0.16379,5
163.068,  149.43,     0.32789, 14.82309,    0.15874,5
154.812,  150.442,     0.31529, 14.82632,    0.15397,5
154.122,  150.53,     0.31611, 14.82525,    0.15357,5