File: cffp2/char_GB_reground_1_11_10.csv
#FILE:                       ,Char_GB_reground_1_11_10.dsu
#FORMAT:                     ,NETZSCH5
#IDENTITY:                   ,Char GB reground_1_11_10
#DECIMAL:                    ,POINT
#SEPARATOR:                  ,COMMA
#MTYPE:                      ,DTA
#MSUBTYPE:                   ,
#INSTRUMENT:                 ,NETZSCH STA 449 C
#PROJECT:                    ,Torrefaction
#DATE/TIME:                  ,01/11/2010 09:30:00
#CORR. FILE:                 ,buoyancy_drying_13_10_10.bsu
#LABORATORY:                 ,Sustainable Research Energ
#OPERATOR:                   ,A Saddawi
#REMARK:                     ,
#SAMPLE:                     ,nonisoth oxid with init drying
#SAMPLE MASS /mg:            ,10.460
#MATERIAL:                   ,char
#REFERENCE:                  ,Alumina
#REFERENCE MASS /mg:         ,0.000
#TYPE OF CRUCIBLE:           ,DTA/TG crucible Al2O3
#SAMPLE CRUCIBLE MASS /mg:   ,0.000
#REFERENCE CRUCIBLE MASS /mg:,0.000
#CORR. CODE:                 ,020
#EXO:                        ,-1
#RANGE:                      ,30.0....900.0/0.0....10.0K/min
#SEGMENT:                    ,S1-4/4

##Temp./øC,Time/min,DTA/(mW/mg),Mass/%,DTG/(%/min),Sensit./(æV/mW),Segment
 33.19700,0.0000e+000,     0.17803,100,-5.3032e-013,8.9949e-002,1
 33.25700,    0.73000,     0.14078, 99.94359,    -0.17642,8.9977e-002,1
 34.81200,    1.46000,    -0.25036, 99.82696,    -0.14655,9.0693e-002,1
 40.23200,    2.19000,    -0.50127, 99.71893,    -0.14627,9.3215e-002,1
 48.39400,    2.92000,    -0.56869, 99.56501,    -0.25000,9.7083e-002,1
 57.70000,    3.65000,    -0.57520, 99.36424,    -0.31933,    0.10159,1
 67.27700,    4.38000,    -0.56861, 99.12428,    -0.32771,    0.10634,1
 76.60800,    5.11000,    -0.61972, 98.88337,    -0.32488,    0.11107,1
 85.60500,    5.84000,    -0.71872, 98.66157,    -0.27874,    0.11573,1
 94.31300,    6.57000,    -0.81746, 98.46558,    -0.26562,    0.12031,1
102.638,    7.30000,    -0.86012, 98.30115,    -0.19557,    0.12477,2
109.465,    8.03000,    -0.53860, 98.15488,    -0.17909,    0.12847,2
113.469,    8.76000,    -0.21768, 98.04015,    -0.12502,    0.13066,2
115.1,    9.49000,-1.1809e-002, 97.95985,-5.8937e-002,    0.13155,2
115.027,   10.22000,     0.11813, 97.89293,-9.4309e-002,    0.13151,2
113.82,   10.95000,     0.19727, 97.84990,-5.8714e-002,    0.13085,2
111.897,   11.68000,     0.24123, 97.81166,-2.9045e-002,    0.12979,2
109.504,   12.41000,     0.25485, 97.78968,-9.0520e-003,    0.12848,2
106.836,   13.14000,     0.25869, 97.77533,    -0.11481,    0.12704,2
104.027,   13.87000,     0.25612, 97.76386,-3.5530e-003,    0.12551,2
101.117,   14.60000,     0.25743, 97.75335, 5.7381e-003,    0.12395,2
 98.24400,   15.33000,     0.21185, 97.74379, 0.0000e+000,    0.12241,2
 96.21100,   16.06000,-1.5760e-002, 97.73805, 6.3842e-003,    0.12132,2
 95.71900,   16.79000,-8.8843e-002, 97.73996,-2.0116e-002,    0.12106,2
 96.24600,   17.52000,-4.6288e-002, 97.73518,-1.7942e-002,    0.12134,2
 97.06900,   18.25000, 6.8691e-003, 97.73614,-4.3044e-002,    0.12178,2
 97.82800,   18.98000, 5.3793e-002, 97.72562,-1.9577e-002,    0.12218,2
 98.41300,   19.71000, 6.6338e-002, 97.72275, 1.0664e-002,    0.12250,2
 98.83500,   20.44000, 7.4980e-002, 97.71511,-2.3467e-002,    0.12272,2
 99.14100,   21.17000, 7.2935e-002, 97.70650, 1.4366e-002,    0.12289,2
 99.36900,   21.90000, 6.9948e-002, 97.70746,-7.4425e-003,    0.12301,2
 99.53300,   22.63000, 6.8927e-002, 97.91109,     0.85964,    0.12310,3
 99.64800,   23.36000, 7.1803e-002, 98.19694,-5.6983e-002,    0.12316,3
 99.73200,   24.09000, 6.8867e-002, 98.08222,    -0.22080,    0.12320,3
 99.80600,   24.82000, 6.7877e-002, 97.93977,    -0.20161,    0.12324,3
 99.85700,   25.55000, 7.1738e-002, 97.79254,    -0.18604,    0.12327,3
 99.90600,   26.28000, 7.9479e-002, 97.65010,    -0.12093,    0.12329,3
 99.93400,   27.01000, 8.5282e-002, 97.54493,    -0.14416,    0.12331,3
100.401,   27.74000,    -0.12476, 97.46463,-7.6927e-002,    0.12356,4
103.937,   28.47000,    -0.81912, 97.41874,-7.0135e-002,    0.12547,4
110.769,   29.20000,    -1.44594, 97.37476,-6.8710e-002,    0.12918,4
119.558,   29.93000,    -1.79061, 97.32696,-6.4549e-002,    0.13401,4
129.114,   30.66000,    -1.92372, 97.26960,-9.0608e-002,    0.13934,4
138.64,   31.39000,    -1.96209, 97.17591,    -0.10421,    0.14471,4
147.811,   32.12000,    -2.01241, 97.11090,-8.7719e-002,    0.14994,4
156.5,   32.85000,    -2.10484, 97.03346,-9.9970e-002,    0.15494,4
164.797,   33.58000,    -2.23827, 96.97036,    -0.10999,    0.15974,4
172.791,   34.31000,    -2.40169, 96.89675,    -0.11190,    0.16440,4
180.592,   35.04000,    -2.56744, 96.82218,-9.6431e-002,    0.16896,4
188.28,   35.77000,    -2.74667, 96.76291,-7.9460e-002,    0.17347,4
195.89,   36.50000,    -2.91611, 96.70076,-6.9696e-002,    0.17794,4
203.392,   37.23000,    -3.09007, 96.64245,-7.4915e-002,    0.18234,4
210.825,   37.96000,    -3.26683, 96.58700,    -0.10361,    0.18671,4
218.223,   38.69000,    -3.45165, 96.53728,-6.5780e-002,    0.19104,4
225.567,   39.42000,    -3.63277, 96.48470,-4.5861e-002,    0.19534,4
232.892,   40.15000,    -3.81742, 96.44551,-5.9635e-002,    0.19960,4
240.199,   40.88000,    -4.00788, 96.39484,-6.7402e-002,    0.20383,4
247.475,   41.61000,    -4.20587, 96.35373,-5.9871e-002,    0.20801,4
254.752,   42.34000,    -4.39727, 96.31931,-5.2739e-002,    0.21217,4
262.018,   43.07000,    -4.60102, 96.27533,-5.1061e-002,    0.21628,4
269.261,   43.80000,    -4.81029, 96.23805,-5.2461e-002,    0.22033,4
276.499,   44.53000,    -5.02269, 96.19885,-4.1603e-002,    0.22434,4
283.742,   45.26000,    -5.24655, 96.15201,-7.8302e-002,    0.22830,4
290.978,   45.99000,    -5.48120, 96.10612,-6.7816e-002,    0.23219,4
298.207,   46.72000,    -5.73102, 96.04589,-6.8559e-002,    0.23602,4
305.455,   47.45000,    -5.99105, 95.98088,-7.1144e-002,    0.23980,4
312.702,   48.18000,    -6.26264, 95.90057,    -0.11290,    0.24350,4
319.914,   48.91000,    -6.55029, 95.80115,    -0.11602,    0.24711,4
327.141,   49.64000,    -6.86601, 95.68260,    -0.17546,    0.25065,4
334.361,   50.37000,    -7.19896, 95.53537,    -0.24792,    0.25410,4
341.6,   51.10000,    -7.54628, 95.36520,    -0.23461,    0.25746,4
348.842,   51.83000,    -7.91038, 95.16635,    -0.28621,    0.26073,4
356.06,   52.56000,    -8.29110, 94.92734,    -0.35255,    0.26390,4
363.296,   53.29000,    -8.65517, 94.65488,    -0.41022,    0.26696,4
370.526,   54.02000,    -9.01112, 94.34895,    -0.42175,    0.26992,4
377.76,   54.75000,    -9.35002, 94.00860,    -0.47747,    0.27276,4
384.994,   55.48000,    -9.66996, 93.63958,    -0.52369,    0.27549,4
392.238,   56.21000,    -9.97191, 93.23423,    -0.59225,    0.27810,4
399.481,   56.94000,   -10.27152, 92.80019,    -0.55717,    0.28059,4
406.715,   57.67000,   -10.57580, 92.32409,    -0.70340,    0.28294,4
413.962,   58.40000,   -10.87612, 91.82792,    -0.70968,    0.28517,4
421.205,   59.13000,   -11.19624, 91.28968,    -0.77882,    0.28727,4
428.45,   59.86000,   -11.55217, 90.69981,    -0.83577,    0.28923,4
435.713,   60.59000,   -11.93685, 90.05449,    -0.92391,    0.29105,4
442.978,   61.32000,   -12.35050, 89.35564,    -1.02143,    0.29273,4
450.235,   62.05000,   -12.79020, 88.58795,    -1.09375,    0.29426,4
457.478,   62.78000,   -13.26602, 87.73040,    -1.63255,    0.29564,4
464.742,   63.51000,   -13.78360, 86.77725,    -1.76008,    0.29688,4
472.002,   64.24000,   -14.34792, 85.69025,    -2.18232,    0.29796,4
479.267,   64.97000,   -14.96371, 84.54971,    -1.66829,    0.29889,4
486.535,   65.70000,   -15.63195, 83.22658,    -1.90847,    0.29967,4
493.806,   66.43000,   -16.35732, 81.73996,    -2.13591,    0.30029,4
501.081,   67.16000,   -17.15290, 80.07361,    -2.43146,    0.30076,4
508.35,   67.89000,   -18.01973, 78.19981,    -2.73372,    0.30106,4
515.631,   68.62000,   -18.95772, 75.96558,    -3.02444,    0.30121,4
522.907,   69.35000,   -19.97622, 73.53537,    -3.57104,    0.30121,4
530.197,   70.08000,   -21.06295, 70.81549,    -3.85256,    0.30104,4
537.477,   70.81000,   -22.20457, 67.78107,    -4.44173,    0.30072,4
544.758,   71.54000,   -23.38708, 64.38910,    -4.90100,    0.30024,4
552.037,   72.27000,   -24.57177, 60.65010,    -5.35425,    0.29961,4
559.303,   73.00000,   -25.73105, 56.58126,    -5.69297,    0.29882,4
566.592,   73.73000,   -26.83677, 52.23996,    -6.48670,    0.29788,4
573.865,   74.46000,   -27.84274, 47.62237,    -6.37540,    0.29678,4
581.131,   75.19000,   -28.70078, 42.80401,    -6.64145,    0.29554,4
588.385,   75.92000,   -29.33603, 37.84799,    -6.86319,    0.29416,4
595.636,   76.65000,   -29.49542, 32.83174,    -6.73859,    0.29263,4
602.867,   77.38000,   -29.04041, 27.93595,    -6.60892,    0.29096,4
610.079,   78.11000,   -28.35861, 23.22467,    -6.17566,    0.28916,4
617.312,   78.84000,   -27.71760, 18.70841,    -6.03783,    0.28722,4
624.55,   79.57000,   -26.70552, 14.40535,    -5.66039,    0.28515,4
631.751,   80.30000,   -18.10377, 11.12906,    -1.06752,    0.28296,4
638.64,   81.03000,    -6.01464, 11.01625,    -0.25001,    0.28074,4
645.854,   81.76000,    -3.80700, 10.83365,    -0.15620,    0.27831,4
653.239,   82.49000,    -3.15220, 10.74665,    -0.12203,    0.27569,4
660.634,   83.22000,    -2.83755, 10.65966,    -0.12401,    0.27295,4
668.013,   83.95000,    -2.68389, 10.58700,-8.9218e-002,    0.27009,4
675.371,   84.68000,    -2.59146, 10.54589,-4.2788e-002,    0.26714,4
682.722,   85.41000,    -2.50381, 10.52103,-4.3554e-002,    0.26408,4
690.062,   86.14000,    -2.43287, 10.49713,-4.8813e-002,    0.26093,4
697.383,   86.87000,    -2.36934, 10.47897,-2.0673e-002,    0.25768,4
704.718,   87.60000,    -2.33046, 10.45698,-3.2790e-002,    0.25434,4
712.034,   88.33000,    -2.30983, 10.44550,-1.7219e-002,    0.25092,4
719.352,   89.06000,    -2.31452, 10.43021,-4.1456e-004,    0.24742,4
726.671,   89.79000,    -2.33723, 10.41683,-3.1667e-002,    0.24384,4
733.982,   90.52000,    -2.37223, 10.41109,-1.8511e-002,    0.24019,4
741.294,   91.25000,    -2.43226, 10.40153, 1.5565e-003,    0.23647,4
748.616,   91.98000,    -2.50416, 10.39579,-1.9753e-002,    0.23269,4
755.922,   92.71000,    -2.57953, 10.38432,-1.1090e-002,    0.22886,4
763.229,   93.44000,    -2.65649, 10.37763,-2.7449e-002,    0.22497,4
770.554,   94.17000,    -2.74497, 10.36616,-9.0272e-003,    0.22103,4
777.844,   94.90000,    -2.82597, 10.35372,-1.2564e-003,    0.21706,4
785.149,   95.63000,    -2.91342, 10.34895, 5.8427e-003,    0.21305,4
792.46,   96.36000,    -3.00532, 10.34035,-5.5333e-003,    0.20900,4
799.772,   97.09000,    -3.10536, 10.33461,-7.9981e-003,    0.20492,4
807.072,   97.82000,    -3.20141, 10.32983,-3.2461e-002,    0.20083,4
814.381,   98.55000,    -3.30671, 10.32313,-1.2275e-002,    0.19671,4
821.681,   99.28000,    -3.41543, 10.32027,-1.9942e-002,    0.19258,4
828.988,  100.01,    -3.53615, 10.31262,-2.5836e-002,    0.18844,4
836.309,  100.74,    -3.65791, 10.30880,-9.6461e-003,    0.18429,4
843.614,  101.47,    -3.79394, 10.30593, 3.0734e-003,    0.18014,4
850.922,  102.2,    -3.93352, 10.30019,-9.7300e-003,    0.17600,4
858.241,  102.93,    -4.08258, 10.29732,-3.7409e-003,    0.17185,4
865.545,  103.66,    -4.23137, 10.29350, 1.7081e-003,    0.16773,4
869.149,  104.02,    -4.30770, 10.28967,-3.6725e-002,    0.16570,4