File: cffp2/char_N_18_10_10.csv
#FILE:                       ,CharN_18_10_10.dsu            ,,,,,,,,,,,,,,,,,,,,,,,,,,
#FORMAT:                     ,NETZSCH5                      ,,,,,,,,,,,,,,,,,,,,,,,,,,
#IDENTITY:                   ,CharN_18_10_10                ,,,,,,,,,,,,,,,,,,,,,,,,,,
#DECIMAL:                    ,POINT                         ,,,,,,,,,,,,,,,,,,,,,,,,,,
#SEPARATOR:                  ,COMMA                         ,,,,,,,,,,,,,,,,,,,,,,,,,,
#MTYPE:                      ,DTA                           ,,,,,,,,,,,,,,,,,,,,,,,,,,
#MSUBTYPE:                   ,                              ,,,,,,,,,,,,,,,,,,,,,,,,,,
#INSTRUMENT:                 ,NETZSCH STA 449 C             ,,,,,,,,,,,,,,,,,,,,,,,,,,
#PROJECT:                    ,Torrefaction                  ,,,,,,,,,,,,,,,,,,,,,,,,,,
#DATE/TIME:                  ,18/10/2010 10:44:37           ,,,,,,,,,,,,,,,,,,,,,,,,,,
#CORR. FILE:                 ,buoyancy_drying_13_10_10.bsu  ,,,,,,,,,,,,,,,,,,,,,,,,,,
#LABORATORY:                 ,Sustainable Research Energ    ,,,,,,,,,,,,,,,,,,,,,,,,,,
#OPERATOR:                   ,A Saddawi                     ,,,,,,,,,,,,,,,,,,,,,,,,,,
#REMARK:                     ,                              ,,,,,,,,,,,,,,,,,,,,,,,,,,
#SAMPLE:                     ,nonisoth oxid with init drying,,,,,,,,,,,,,,,,,,,,,,,,,,
#SAMPLE MASS /mg:            ,10.42,,,,,,,,,,,,,,,,,,,,,,,,,,
#MATERIAL:                   ,char                          ,,,,,,,,,,,,,,,,,,,,,,,,,,
#REFERENCE:                  ,Alumina                       ,,,,,,,,,,,,,,,,,,,,,,,,,,
#REFERENCE MASS /mg:         ,0,,,,,,,,,,,,,,,,,,,,,,,,,,
#TYPE OF CRUCIBLE:           ,DTA/TG crucible Al2O3         ,,,,,,,,,,,,,,,,,,,,,,,,,,
#SAMPLE CRUCIBLE MASS /mg:   ,0,,,,#SEGMENT:                    ,S1-5/5                          ,,,,,,,,,,,,,,,,,,,,,
#REFERENCE CRUCIBLE MASS /mg:,0,,,,,,,,,,,,,,,,,,,,,,,,,,
#CORR. CODE:                 ,20,,,,,,,,,,,,,,,,,,,,,,,,,,
#EXO:                        ,-1,,,,,,,,,,,,,,,,,,,,,,,,,,
#RANGE:                      ,100.0/10.0(K/min)/900.0       ,,,,,,,,,,,,,,,,,,,,,,,,,,
#SEGMENT:                    ,S1-5/5                          ,,,,,,,,,,,,,,,,,,,,,,,,,,
,,,,,,,,,,,,,,,,,,,,,,,,,,,
,,,,,,,,,,,,,0.954504,0.938633,0.9171,0.886441,0.841545,0.771246,0.665178,0.509361,0.992764,0.987249,0.978641,0.967551,0.309448,0.14116,0.0944834
##Temp./øC,Time/min,DTA/(mW/mg),Mass/%,Sensit./(æV/mW),,"mass, g","m-minf-mh2o, g",(m-minf-mash)/(mo-minf-mash),dm/dt,1/T(k),"k, s-1",,9.68919,,,,,,6.56761,,2.90427,,,,,,
99.936,27.03,-6.42E-02,97.71401,0.12331,,10.1818,10.1818,1,-0.000642845,0.002680347,6.31366E-05,,0.951619,,,,,,0.645034,,0.285241,,,,,,
504.74,67.53,-18.72597,80.3887,0.30093,,8.3765,8.3765,0.822694,-0.273763,0.001285529,0.0326822,,,,,,,,,,,,,,,,
435.074,40.5,-12.29138,90.60479,,,9.44102,9.44102,0.927245,-0.130178,0.001411983,0.0137885,,,,,,,,,,,,,,,,
636.265,60.75,-8.77401,8.66068,,,0.902443,0.902443,0.08863294,-0.204928,0.001099608,0.227081,,,,,,,,,,,,,,,,
839.146,81,-2.17234,7.96607,,,0.830064,0.830064,0.0815243,-0.000385244,0.000899041,0.000464113,,,,,,,,,,,,,,,,
,,,,,,0,0,0,#DIV/0!,0.003660992,#DIV/0!,,,,,,,,,,,,,,,,
,,,,,,0,0,0,#DIV/0!,0.003660992,#DIV/0!,,,,,,,,,,,,,,,,
,,,,,,0,0,0,#DIV/0!,0.003660992,#DIV/0!,,,,,,,,,,,,,,,,
,,,,,,0,0,0,#DIV/0!,0.003660992,#DIV/0!,,,,,,,,,,,,,,,,
,,,,,,0,0,0,#DIV/0!,0.003660992,#DIV/0!,,,,,,,,,,,,,,,,
,,,,,,0,0,0,#DIV/0!,0.003660992,#DIV/0!,,,,,,,,,,,,,,,,
,,,,,,0,0,0,#DIV/0!,0.003660992,#DIV/0!,,,,,,,,,,,,,,,,
,,,,,,0,0,0,#DIV/0!,0.003660992,#DIV/0!,,,,,,,,,,,,,,,,
,,,,,,0,0,0,#DIV/0!,0.003660992,#DIV/0!,,,,,,,,,,,,,,,,
,,,,,,0,0,0,#DIV/0!,0.003660992,#DIV/0!,,,,,,,,,,,,,,,,
,,,,,,0,0,0,#DIV/0!,0.003660992,#DIV/0!,,,,,,,,,,,,,,,,
,,,,,,0,0,0,#DIV/0!,0.003660992,#DIV/0!,,,,,,,,,,,,,,,,
,,,,,,0,0,0,#DIV/0!,0.003660992,#DIV/0!,,,,,,,,,,,,,,,,
,,,,,,0,0,0,#DIV/0!,0.003660992,#DIV/0!,,,,,,,,,,,,,,,,
,,,,,,0,0,0,#DIV/0!,0.003660992,#DIV/0!,,,,,,,,,,,,,,,,
,,,,,,0,0,0,#DIV/0!,0.003660992,#DIV/0!,,,,,,,,,,,,,,,,
,,,,,,0,0,0,#DIV/0!,0.003660992,#DIV/0!,,,,,,,,,,,,,,,,
,,,,,,0,0,0,#DIV/0!,0.003660992,#DIV/0!,,,,,,,,,,,,,,,,
,,,,,,0,0,0,#DIV/0!,0.003660992,#DIV/0!,,,,,,,,,,,,,,,,
,,,,,,0,0,0,#DIV/0!,0.003660992,#DIV/0!,,,,,,,,,,,,,,,,
,,,,,,0,0,0,#DIV/0!,0.003660992,#DIV/0!,,,,,,,,,,,,,,,,
,,,,,,0,0,0,#DIV/0!,0.003660992,#DIV/0!,,,,,,,,,,,,,,,,
,,,,,,0,0,0,#DIV/0!,0.003660992,#DIV/0!,,,,,,,,,,,,,,,,
,,,,,,0,0,0,#DIV/0!,0.003660992,#DIV/0!,,,,,,,,,,,,,,,,
,,,,,,0,0,0,#DIV/0!,0.003660992,#DIV/0!,,,,,,,,,,,,,,,,
,,,,,,0,0,0,#DIV/0!,0.003660992,#DIV/0!,,,,,,,,,,,,,,,,
,,,,,,0,0,0,#DIV/0!,0.003660992,#DIV/0!,,,,,,,,,,,,,,,,
,,,,,,0,0,0,#DIV/0!,0.003660992,#DIV/0!,,,,,,,,,,,,,,,,
,,,,,,0,0,0,#DIV/0!,0.003660992,#DIV/0!,,,,,,,,,,,,,,,,
,,,,,,0,0,0,#DIV/0!,0.003660992,#DIV/0!,,,,,,,,,,,,,,,,
,,,,,,0,0,0,#DIV/0!,0.003660992,#DIV/0!,,,,,,,,,,,,,,,,
,,,,,,0,0,0,#DIV/0!,0.003660992,#DIV/0!,,,,,,,,,,,,,,,,
,,,,,,0,0,0,#DIV/0!,0.003660992,#DIV/0!,,,,,,,,,,,,,,,,
,,,,,,0,0,0,#DIV/0!,0.003660992,#DIV/0!,,,,,,,,,,,,,,,,
,,,,,,0,0,0,#DIV/0!,0.003660992,#DIV/0!,,,,,,,,,,,,,,,,
,,,,,,0,0,0,#DIV/0!,0.003660992,#DIV/0!,,,,,,,,,,,,,,,,
,,,,,,0,0,0,#DIV/0!,0.003660992,#DIV/0!,,,,,,,,,,,,,,,,
,,,,,,0,0,0,#DIV/0!,0.003660992,#DIV/0!,,,,,,,,,,,,,,,,
,,,,,,0,0,0,#DIV/0!,0.003660992,#DIV/0!,,,,,,,,,,,,,,,,
,,,,,,0,0,0,#DIV/0!,0.003660992,#DIV/0!,,,,,,,,,,,,,,,,
,,,,,,0,0,0,#DIV/0!,0.003660992,#DIV/0!,,,,,,,,,,,,,,,,
,,,,,,0,0,0,#DIV/0!,0.003660992,#DIV/0!,,,,,,,,,,,,,,,,
,,,,,,0,0,0,#DIV/0!,0.003660992,#DIV/0!,,,,,,,,,,,,,,,,
,,,,,,0,0,0,#DIV/0!,0.003660992,#DIV/0!,,,,,,,,,,,,,,,,
,,,,,,0,0,0,#DIV/0!,0.003660992,#DIV/0!,,,,,,,,,,,,,,,,
,,,,,,0,0,0,#DIV/0!,0.003660992,#DIV/0!,,,,,,,,,,,,,,,,
,,,,,,0,0,0,#DIV/0!,0.003660992,#DIV/0!,,,,,,,,,,,,,,,,
,,,,,,0,0,0,#DIV/0!,0.003660992,#DIV/0!,,,,,,,,,,,,,,,,
,,,,,,0,0,0,#DIV/0!,0.003660992,#DIV/0!,,,,,,,,,,,,,,,,
,,,,,,0,0,0,#DIV/0!,0.003660992,#DIV/0!,,,,,,,,,,,,,,,,
,,,,,,0,0,0,#DIV/0!,0.003660992,#DIV/0!,,,,,,,,,,,,,,,,
,,,,,,0,0,0,#DIV/0!,0.003660992,#DIV/0!,,,,,,,,,,,,,,,,
,,,,,,0,0,0,#DIV/0!,0.003660992,#DIV/0!,,,,,,,,,,,,,,,,
,,,,,,0,0,0,#DIV/0!,0.003660992,#DIV/0!,,,,,,,,,,,,,,,,
,,,,,,0,0,0,#DIV/0!,0.003660992,#DIV/0!,,,,,,,,,,,,,,,,
,,,,,,0,0,0,#DIV/0!,0.003660992,#DIV/0!,,,,,,,,,,,,,,,,
,,,,,,0,0,0,#DIV/0!,0.003660992,#DIV/0!,,,,,,,,,,,,,,,,
,,,,,,0,0,0,#DIV/0!,0.003660992,#DIV/0!,,,,,,,,,,,,,,,,
,,,,,,0,0,0,#DIV/0!,0.003660992,#DIV/0!,,,,,,,,,,,,,,,,
,,,,,,0,0,0,#DIV/0!,0.003660992,#DIV/0!,,,,,,,,,,,,,,,,
,,,,,,0,0,0,#DIV/0!,0.003660992,#DIV/0!,,,,,,,,,,,,,,,,
,,,,,,0,0,0,#DIV/0!,0.003660992,#DIV/0!,,,,,,,,,,,,,,,,
,,,,,,0,0,0,#DIV/0!,0.003660992,#DIV/0!,,,,,,,,,,,,,,,,
,,,,,,0,0,0,#DIV/0!,0.003660992,#DIV/0!,,,,,,,,,,,,,,,,
,,,,,,0,0,0,#DIV/0!,0.003660992,#DIV/0!,,,,,,,,,,,,,,,,
,,,,,,0,0,0,#DIV/0!,0.003660992,#DIV/0!,,,,,,,,,,,,,,,,
,,,,,,0,0,0,#DIV/0!,0.003660992,#DIV/0!,,,,,,,,,,,,,,,,
,,,,,,0,0,0,#DIV/0!,0.003660992,#DIV/0!,,,,,,,,,,,,,,,,
,,,,,,0,0,0,#DIV/0!,0.003660992,#DIV/0!,,,,,,,,,,,,,,,,
,,,,,,0,0,0,#DIV/0!,0.003660992,#DIV/0!,,,,,,,,,,,,,,,,
,,,,,,0,0,0,#DIV/0!,0.003660992,#DIV/0!,,,,,,,,,,,,,,,,
,,,,,,0,0,0,#DIV/0!,0.003660992,#DIV/0!,,,,,,,,,,,,,,,,
,,,,,,0,0,0,#DIV/0!,0.003660992,#DIV/0!,,,,,,,,,,,,,,,,
,,,,,,0,0,0,#DIV/0!,0.003660992,#DIV/0!,,,,,,,,,,,,,,,,
,,,,,,0,0,0,#DIV/0!,0.003660992,#DIV/0!,,,,,,,,,,,,,,,,
,,,,,,0,0,0,#DIV/0!,0.003660992,#DIV/0!,,,,,,,,,,,,,,,,
,,,,,,0,0,0,#DIV/0!,0.003660992,#DIV/0!,,,,,,,,,,,,,,,,
,,,,,,0,0,0,#DIV/0!,0.003660992,#DIV/0!,,,,,,,,,,,,,,,,
,,,,,,0,0,0,#DIV/0!,0.003660992,#DIV/0!,,,,,,,,,,,,,,,,
,,,,,,0,0,0,#DIV/0!,0.003660992,#DIV/0!,,,,,,,,,,,,,,,,
,,,,,,0,0,0,#DIV/0!,0.003660992,#DIV/0!,,,,,,,,,,,,,,,,
,,,,,,0,0,0,#DIV/0!,0.003660992,#DIV/0!,,,,,,,,,,,,,,,,
,,,,,,0,0,0,#DIV/0!,0.003660992,#DIV/0!,,,,,,,,,,,,,,,,
,,,,,,0,0,0,#DIV/0!,0.003660992,#DIV/0!,,,,,,,,,,,,,,,,
,,,,,,0,0,0,#DIV/0!,0.003660992,#DIV/0!,,,,,,,,,,,,,,,,
,,,,,,0,0,0,#DIV/0!,0.003660992,#DIV/0!,,,,,,,,,,,,,,,,
,,,,,,0,0,0,#DIV/0!,0.003660992,#DIV/0!,,,,,,,,,,,,,,,,
,,,,,,0,0,0,#DIV/0!,0.003660992,#DIV/0!,,,,,,,,,,,,,,,,
,,,,,,0,0,0,#DIV/0!,0.003660992,#DIV/0!,,,,,,,,,,,,,,,,
,,,,,,0,0,0,#DIV/0!,0.003660992,#DIV/0!,,,,,,,,,,,,,,,,
,,,,,,0,0,0,#DIV/0!,0.003660992,#DIV/0!,,,,,,,,,,,,,,,,
,,,,,,0,0,0,#DIV/0!,0.003660992,#DIV/0!,,,,,,,,,,,,,,,,
,,,,,,0,0,0,#DIV/0!,0.003660992,#DIV/0!,,,,,,,,,,,,,,,,
,,,,,,0,0,0,#DIV/0!,0.003660992,#DIV/0!,,,,,,,,,,,,,,,,
,,,,,,0,0,0,#DIV/0!,0.003660992,#DIV/0!,,,,,,,,,,,,,,,,
,,,,,,0,0,0,#DIV/0!,0.003660992,#DIV/0!,,,,,,,,,,,,,,,,
,,,,,,0,0,0,#DIV/0!,0.003660992,#DIV/0!,,,,,,,,,,,,,,,,
,,,,,,0,0,0,#DIV/0!,0.003660992,#DIV/0!,,,,,,,,,,,,,,,,
,,,,,,0,0,0,#DIV/0!,0.003660992,#DIV/0!,,,,,,,,,,,,,,,,
,,,,,,0,0,0,#DIV/0!,0.003660992,#DIV/0!,,,,,,,,,,,,,,,,
,,,,,,0,0,0,#DIV/0!,0.003660992,#DIV/0!,,,,,,,,,,,,,,,,
,,,,,,0,0,0,#DIV/0!,0.003660992,#DIV/0!,,,,,,,,,,,,,,,,
,,,,,,0,0,0,#DIV/0!,0.003660992,#DIV/0!,,,,,,,,,,,,,,,,
,,,,,,0,0,0,#DIV/0!,0.003660992,#DIV/0!,,,,,,,,,,,,,,,,
,,,,,,0,0,0,#DIV/0!,0.003660992,#DIV/0!,,,,,,,,,,,,,,,,
,,,,,,0,0,0,#DIV/0!,0.003660992,#DIV/0!,,,,,,,,,,,,,,,,
,,,,,,0,0,0,#DIV/0!,0.003660992,#DIV/0!,,,,,,,,,,,,,,,,
,,,,,,0,0,0,#DIV/0!,0.003660992,#DIV/0!,,,,,,,,,,,,,,,,
,,,,,,0,0,0,#DIV/0!,0.003660992,#DIV/0!,,,,,,,,,,,,,,,,
,,,,,,0,0,0,#DIV/0!,0.003660992,#DIV/0!,,,,,,,,,,,,,,,,
,,,,,,0,0,0,#DIV/0!,0.003660992,#DIV/0!,,,,,,,,,,,,,,,,
,,,,,,0,0,0,#DIV/0!,0.003660992,#DIV/0!,,,,,,,,,,,,,,,,
,,,,,,0,0,0,#DIV/0!,0.003660992,#DIV/0!,,,,,,,,,,,,,,,,
,,,,,,0,0,0,#DIV/0!,0.003660992,#DIV/0!,,,,,,,,,,,,,,,,
,,,,,,0,0,0,#DIV/0!,0.003660992,#DIV/0!,,,,,,,,,,,,,,,,
,,,,,,0,0,0,#DIV/0!,0.003660992,#DIV/0!,,,,,,,,,,,,,,,,
,,,,,,0,0,0,#DIV/0!,0.003660992,#DIV/0!,,,,,,,,,,,,,,,,
,,,,,,0,0,0,#DIV/0!,0.003660992,#DIV/0!,,,,,,,,,,,,,,,,
,,,,,,0,0,0,#DIV/0!,0.003660992,#DIV/0!,,,,,,,,,,,,,,,,
,,,,,,0,0,0,#DIV/0!,0.003660992,#DIV/0!,,,,,,,,,,,,,,,,
,,,,,,0,0,0,#DIV/0!,0.003660992,#DIV/0!,,,,,,,,,,,,,,,,
,,,,,,0,0,0,#DIV/0!,0.003660992,#DIV/0!,,,,,,,,,,,,,,,,
,,,,,,0,0,0,#DIV/0!,0.003660992,#DIV/0!,,,,,,,,,,,,,,,,
,,,,,,0,0,0,#DIV/0!,0.003660992,#DIV/0!,,,,,,,,,,,,,,,,
,,,,,,0,0,0,#DIV/0!,0.003660992,#DIV/0!,,,,,,,,,,,,,,,,
,,,,,,0,0,0,#DIV/0!,0.003660992,#DIV/0!,,,,,,,,,,,,,,,,
,,,,,,0,0,0,#DIV/0!,0.003660992,#DIV/0!,,,,,,,,,,,,,,,,
,,,,,,0,0,0,#DIV/0!,0.003660992,#DIV/0!,,,,,,,,,,,,,,,,
,,,,,,0,0,0,#DIV/0!,0.003660992,#DIV/0!,,,,,,,,,,,,,,,,
,,,,,,0,0,0,#DIV/0!,0.003660992,#DIV/0!,,,,,,,,,,,,,,,,
,,,,,,0,0,0,#DIV/0!,0.003660992,#DIV/0!,,,,,,,,,,,,,,,,
,,,,,,0,0,0,#DIV/0!,0.003660992,#DIV/0!,,,,,,,,,,,,,,,,
,,,,,,0,0,0,#DIV/0!,0.003660992,#DIV/0!,,,,,,,,,,,,,,,,
,,,,,,0,0,0,#DIV/0!,0.003660992,#DIV/0!,,,,,,,,,,,,,,,,
,,,,,,0,0,0,#DIV/0!,0.003660992,#DIV/0!,,,,,,,,,,,,,,,,
,,,,,,0,0,0,#DIV/0!,0.003660992,#DIV/0!,,,,,,,,,,,,,,,,
,,,,,,0,0,0,#DIV/0!,0.003660992,#DIV/0!,,,,,,,,,,,,,,,,
,,,,,,0,0,0,#DIV/0!,0.003660992,#DIV/0!,,,,,,,,,,,,,,,,
,,,,,,0,0,0,#DIV/0!,0.003660992,#DIV/0!,,,,,,,,,,,,,,,,
,,,,,,0,0,0,#DIV/0!,0.003660992,#DIV/0!,,,,,,,,,,,,,,,,
,,,,,,0,0,0,#DIV/0!,0.003660992,#DIV/0!,,,,,,,,,,,,,,,,
,,,,,,0,0,0,#DIV/0!,0.003660992,#DIV/0!,,,,,,,,,,,,,,,,
,,,,,,0,0,0,#DIV/0!,0.003660992,#DIV/0!,,,,,,,,,,,,,,,,
,,,,,,0,0,0,#DIV/0!,0.003660992,#DIV/0!,,,,,,,,,,,,,,,,
,,,,,,0,0,0,#DIV/0!,0.003660992,#DIV/0!,,,,,,,,,,,,,,,,
,,,,,,0,0,0,#DIV/0!,0.003660992,#DIV/0!,,,,,,,,,,,,,,,,
,,,,,,0,,,#DIV/0!,0.003660992,#DIV/0!,,,,,,,,,,,,,,,,
,,,,,,0,,,#DIV/0!,0.003660992,#DIV/0!,,,,,,,,,,,,,,,,
,,,,,,0,,,#DIV/0!,0.003660992,#DIV/0!,,,,,,,,,,,,,,,,
,,,,,,0,,,#DIV/0!,0.003660992,#DIV/0!,,,,,,,,,,,,,,,,
,,,,,,0,,,#DIV/0!,0.003660992,#DIV/0!,,,,,,,,,,,,,,,,
,,,,,,0,,,#DIV/0!,0.003660992,#DIV/0!,,,,,,,,,,,,,,,,
,,,,,,0,,,#DIV/0!,0.003660992,#DIV/0!,,,,,,,,,,,,,,,,
,,,,,,0,,,#DIV/0!,0.003660992,#DIV/0!,,,,,,,,,,,,,,,,
,,,,,,0,,,#DIV/0!,0.003660992,#DIV/0!,,,,,,,,,,,,,,,,
,,,,,,0,,,#DIV/0!,0.003660992,#DIV/0!,,,,,,,,,,,,,,,,
,,,,,,0,,,#DIV/0!,0.003660992,#DIV/0!,,,,,,,,,,,,,,,,
,,,,,,0,,,#DIV/0!,0.003660992,#DIV/0!,,,,,,,,,,,,,,,,
,,,,,,0,,,#DIV/0!,0.003660992,#DIV/0!,,,,,,,,,,,,,,,,
,,,,,,0,,,#DIV/0!,0.003660992,#DIV/0!,,,,,,,,,,,,,,,,
,,,,,,0,,,#DIV/0!,0.003660992,#DIV/0!,,,,,,,,,,,,,,,,
,,,,,,0,,,#DIV/0!,0.003660992,#DIV/0!,,,,,,,,,,,,,,,,
,,,,,,0,,,#DIV/0!,0.003660992,#DIV/0!,,,,,,,,,,,,,,,,
,,,,,,0,,,#DIV/0!,0.003660992,#DIV/0!,,,,,,,,,,,,,,,,
,,,,,,0,,,#DIV/0!,0.003660992,#DIV/0!,,,,,,,,,,,,,,,,
,,,,,,0,,,#DIV/0!,0.003660992,#DIV/0!,,,,,,,,,,,,,,,,
,,,,,,0,,,#DIV/0!,0.003660992,#DIV/0!,,,,,,,,,,,,,,,,
,,,,,,0,,,#DIV/0!,0.003660992,#DIV/0!,,,,,,,,,,,,,,,,
,,,,,,0,,,#DIV/0!,0.003660992,#DIV/0!,,,,,,,,,,,,,,,,
,,,,,,0,,,#DIV/0!,0.003660992,#DIV/0!,,,,,,,,,,,,,,,,
,,,,,,0,,,#DIV/0!,0.003660992,#DIV/0!,,,,,,,,,,,,,,,,
,,,,,,0,,,#DIV/0!,0.003660992,#DIV/0!,,,,,,,,,,,,,,,,