File: cffp2/char_GF_23_06_10.csv
#FILE:                       ,char_GF_23_06_10.dsu
#FORMAT:                     ,NETZSCH5
#IDENTITY:                   ,char GF
#DECIMAL:                    ,POINT
#SEPARATOR:                  ,COMMA
#MTYPE:                      ,DTA
#MSUBTYPE:                   ,
#INSTRUMENT:                 ,NETZSCH STA 449 C
#PROJECT:                    ,Torrefaction
#DATE/TIME:                  ,23/06/2010 08:50:22
#CORR. FILE:                 ,char_GF_23_06_10.bsu
#LABORATORY:                 ,Sustainable Research Energ
#OPERATOR:                   ,EMF
#REMARK:                     ,
#SAMPLE:                     ,nonisoth oxid with init drying
#SAMPLE MASS /mg:            ,10.100
#MATERIAL:                   ,Alumina
#REFERENCE:                  ,Alumina
#REFERENCE MASS /mg:         ,0.000
#TYPE OF CRUCIBLE:           ,DTA/TG crucible Al2O3
#SAMPLE CRUCIBLE MASS /mg:   ,0.000
#REFERENCE CRUCIBLE MASS /mg:,0.000
#CORR. CODE:                 ,020
#EXO:                        ,-1
#RANGE:                      ,30.0....900.0/-20.0....10.0K/min
#SEGMENT:                    ,S1-5/5

##Temp./øC,Time/min,DTA/(mW/mg),Mass/%,Sensit./(æV/mW),Segment
 30.99300,0.0000e+000, 8.0709e-002,100,8.8939e-002,1
 31.27800,    0.81000, 3.8906e-002,100.001,8.9069e-002,1
 35.07500,    1.62000,    -0.37750,100.004,9.0815e-002,1
 43.05600,    2.43000,    -0.92943, 99.98515,9.4543e-002,1
 53.16700,    3.24000,    -1.31504, 99.95347,9.9383e-002,1
 63.82500,    4.05000,    -1.50119, 99.89604,    0.10462,1
 74.27000,    4.86000,    -1.58813, 99.78218,    0.10988,1
 84.20900,    5.67000,    -1.63910, 99.65248,    0.11500,1
 93.79000,    6.48000,    -1.69918, 99.50792,    0.12003,1
102.878,    7.29000,    -1.72521, 99.36832,    0.12489,2
110.249,    8.10000,    -1.33563, 99.23168,    0.12889,2
114.262,    8.91000,    -0.89689, 99.11188,    0.13109,2
115.487,    9.72000,    -0.58423, 99.01683,    0.13176,2
114.811,   10.53000,    -0.36453, 98.94851,    0.13139,2
112.949,   11.34000,    -0.22594, 98.90594,    0.13037,2
110.382,   12.15000,    -0.12763, 98.86733,    0.12897,2
107.386,   12.96000,-5.3457e-002, 98.86733,    0.12733,2
104.144,   13.77000,-9.8554e-003, 98.85743,    0.12558,2
100.801,   14.58000, 2.6997e-002, 98.84257,    0.12378,2
 97.64100,   15.39000, 9.1237e-003, 98.84554,    0.12208,2
 95.94700,   16.20000,    -0.11234, 98.84356,    0.12118,2
 95.97700,   17.01000,    -0.26652, 98.84455,    0.12120,2
 96.80900,   17.82000,    -0.33984, 98.83762,    0.12164,2
 97.72200,   18.63000,    -0.36279, 98.84356,    0.12213,2
 98.42600,   19.44000,    -0.34450, 98.82871,    0.12250,2
 98.90300,   20.25000,    -0.33371, 98.82574,    0.12276,2
 99.22800,   21.06000,    -0.32014, 98.82475,    0.12293,2
 99.45100,   21.87000,    -0.30776, 98.81881,    0.12305,2
 99.61400,   22.68000,    -0.30554, 98.83960,    0.12314,3
 99.69500,   23.49000,    -0.36370, 98.97921,    0.12318,3
 99.78500,   24.30000,    -0.35854, 99.01188,    0.12323,3
 99.84800,   25.11000,    -0.33434, 99.00000,    0.12327,3
 99.90900,   25.92000,    -0.31821, 98.96832,    0.12329,3
 99.94700,   26.73000,    -0.31814, 98.92673,    0.12332,3
100.104,   27.54000,    -0.40920, 98.88812,    0.12340,4
103.085,   28.35000,    -1.11677, 98.84356,    0.12501,4
110.352,   29.16000,    -2.02992, 98.80693,    0.12895,4
120.206,   29.97000,    -2.64165, 98.77624,    0.13437,4
130.885,   30.78000,    -2.93770, 98.73960,    0.14033,4
141.395,   31.59000,    -3.05603, 98.69406,    0.14628,4
151.351,   32.40000,    -3.10926, 98.63168,    0.15197,4
160.717,   33.21000,    -3.16841, 98.58020,    0.15738,4
169.673,   34.02000,    -3.26417, 98.50891,    0.16258,4
178.348,   34.83000,    -3.39809, 98.44059,    0.16765,4
186.885,   35.64000,    -3.53547, 98.38515,    0.17265,4
195.327,   36.45000,    -3.68558, 98.34455,    0.17761,4
203.641,   37.26000,    -3.85142, 98.31089,    0.18249,4
211.882,   38.07000,    -4.01490, 98.29406,    0.18733,4
220.084,   38.88000,    -4.18118, 98.27129,    0.19213,4
228.225,   39.69000,    -4.36188, 98.24951,    0.19688,4
236.326,   40.50000,    -4.55476, 98.23267,    0.20159,4
244.416,   41.31000,    -4.75229, 98.20594,    0.20626,4
252.484,   42.12000,    -4.96277, 98.17624,    0.21088,4
260.552,   42.93000,    -5.19228, 98.14950,    0.21545,4
268.594,   43.74000,    -5.44028, 98.11287,    0.21996,4
276.634,   44.55000,    -5.71012, 98.05644,    0.22441,4
284.655,   45.36000,    -5.99736, 97.98911,    0.22879,4
292.682,   46.17000,    -6.33721, 97.89901,    0.23310,4
300.71,   46.98000,    -6.70978, 97.76535,    0.23733,4
308.737,   47.79000,    -7.14578, 97.60396,    0.24149,4
316.77,   48.60000,    -7.66112, 97.36832,    0.24555,4
324.816,   49.41000,    -8.26484, 97.06535,    0.24952,4
332.853,   50.22000,    -8.95650, 96.64356,    0.25338,4
340.885,   51.03000,    -9.72257, 96.09505,    0.25713,4
348.928,   51.84000,   -10.54040, 95.40990,    0.26077,4
356.959,   52.65000,   -11.37963, 94.57426,    0.26428,4
364.99,   53.46000,   -12.26144, 93.56535,    0.26766,4
373.039,   54.27000,   -13.17310, 92.34852,    0.27092,4
381.086,   55.08000,   -14.13497, 90.94059,    0.27403,4
389.116,   55.89000,   -15.17601, 89.26040,    0.27699,4
397.168,   56.70000,   -16.29708, 87.31683,    0.27981,4
405.229,   57.51000,   -17.52969, 84.93465,    0.28247,4
413.279,   58.32000,   -18.81656, 82.26535,    0.28497,4
421.332,   59.13000,   -20.11236, 79.24456,    0.28730,4
429.372,   59.94000,   -21.37824, 75.81386,    0.28946,4
437.432,   60.75000,   -22.48343, 72.06337,    0.29146,4
445.465,   61.56000,   -23.38280, 67.99703,    0.29327,4
453.5,   62.37000,   -24.07768, 63.71287,    0.29490,4
461.534,   63.18000,   -24.63733, 59.22871,    0.29635,4
469.58,   63.99000,   -25.10637, 54.58713,    0.29762,4
477.606,   64.80000,   -25.46179, 49.83960,    0.29869,4
485.632,   65.61000,   -25.71259, 45.00891,    0.29958,4
493.666,   66.42000,   -25.90865, 40.18911,    0.30028,4
501.705,   67.23000,   -26.02617, 35.34555,    0.30079,4
509.73,   68.04000,   -25.95773, 30.55446,    0.30110,4
517.764,   68.85000,   -25.47453, 25.91981,    0.30123,4
525.768,   69.66000,   -23.41889, 21.72376,    0.30116,4
533.644,   70.47000,   -13.77553, 19.55248,    0.30091,4
541.453,   71.28000,    -8.81024, 19.32772,    0.30048,4
549.527,   72.09000,    -8.16312, 19.27525,    0.29984,4
557.707,   72.90000,    -8.13546, 19.23564,    0.29901,4
565.881,   73.71000,    -8.22342, 19.17921,    0.29797,4
574.019,   74.52000,    -8.34178, 19.14654,    0.29676,4
582.15,   75.33000,    -8.46098, 19.09208,    0.29536,4
590.265,   76.14000,    -8.58406, 19.02772,    0.29378,4
598.381,   76.95000,    -8.70833, 18.92673,    0.29201,4
606.481,   77.76000,    -8.82357, 18.77228,    0.29008,4
614.586,   78.57000,    -8.94402, 18.57822,    0.28797,4
622.69,   79.38000,    -9.08457, 18.41981,    0.28570,4
630.787,   80.19000,    -9.21165, 18.28317,    0.28326,4
638.879,   81.00000,    -9.28840, 18.16634,    0.28067,4
646.975,   81.81000,    -9.28406, 18.04654,    0.27792,4
655.06,   82.62000,    -9.15446, 17.89802,    0.27502,4
663.148,   83.43000,    -8.79027, 17.70396,    0.27199,4
671.235,   84.24000,    -7.96909, 17.51386,    0.26881,4
679.306,   85.05000,    -6.91065, 17.31584,    0.26552,4
687.394,   85.86000,    -6.16015, 17.18515,    0.26208,4
695.481,   86.67000,    -5.61427, 17.14356,    0.25853,4
703.576,   87.48000,    -5.24684, 17.10297,    0.25487,4
711.68,   88.29000,    -4.97830, 17.03862,    0.25109,4
719.779,   89.10000,    -4.77651, 16.98614,    0.24721,4
727.896,   89.91000,    -4.55802, 16.96931,    0.24323,4
735.998,   90.72000,    -4.35287, 16.94258,    0.23917,4
744.097,   91.53000,    -4.20732, 16.93069,    0.23503,4
752.207,   92.34000,    -4.12814, 16.88317,    0.23082,4
760.317,   93.15000,    -4.07631, 16.85247,    0.22653,4
768.41,   93.96000,    -4.05222, 16.80990,    0.22219,4
776.515,   94.77000,    -4.04042, 16.79803,    0.21779,4
784.631,   95.58000,    -4.03020, 16.75446,    0.21333,4
792.738,   96.39000,    -4.03269, 16.73070,    0.20884,4
800.851,   97.20000,    -4.05602, 16.70495,    0.20432,4
808.97,   98.01000,    -4.09716, 16.67228,    0.19976,4
817.067,   98.82000,    -4.14105, 16.60891,    0.19519,4
825.189,   99.63000,    -4.19354, 16.59703,    0.19059,4
833.296,  100.44,    -4.24796, 16.56634,    0.18599,4
841.411,  101.25,    -4.32376, 16.54852,    0.18139,4
849.514,  102.06,    -4.40116, 16.52278,    0.17679,4
857.628,  102.87,    -4.48911, 16.49010,    0.17220,4
865.729,  103.68,    -4.58794, 16.46238,    0.16763,4
873.839,  104.49,    -4.70481, 16.46139,    0.16307,4
881.944,  105.3,    -4.83460, 16.41386,    0.15854,4
890.057,  106.11,    -4.95756, 16.42080,    0.15403,4
898.171,  106.92,    -5.11740, 16.39308,    0.14956,4
895.35,  107.918,    -1.75928, 16.38218,    0.15111,5
874.754,  108.93,    -0.43245, 16.39109,    0.16255,5
852.576,  109.942,    -0.29340, 16.42971,    0.17506,5
830.908,  110.955,    -0.27282, 16.40198,    0.18735,5
809.498,  111.968,    -0.24509, 16.35941,    0.19946,5
788.287,  112.98,    -0.26004, 16.37129,    0.21131,5
767.276,  113.993,    -0.25608, 16.37327,    0.22280,5
746.365,  115.005,    -0.26196, 16.36733,    0.23386,5
725.622,  116.017,    -0.28262, 16.37822,    0.24436,5
704.959,  117.03,    -0.27554, 16.35446,    0.25423,5
684.407,  118.043,    -0.27913, 16.34852,    0.26337,5
663.921,  119.055,    -0.28379, 16.36535,    0.27169,5
643.509,  120.067,    -0.28467, 16.34753,    0.27912,5
623.14,  121.08,    -0.28474, 16.37723,    0.28556,5
602.783,  122.093,    -0.28284, 16.37129,    0.29098,5
582.459,  123.105,    -0.27368, 16.36039,    0.29530,5
562.159,  124.118,    -0.27160, 16.34753,    0.29847,5
541.859,  125.13,    -0.26899, 16.35545,    0.30045,5
521.606,  126.142,    -0.26131, 16.34258,    0.30122,5
501.37,  127.155,    -0.25347, 16.34653,    0.30077,5
481.113,  128.167,    -0.24082, 16.38614,    0.29910,5
460.869,  129.18,    -0.22853, 16.35644,    0.29624,5
440.637,  130.192,    -0.21601, 16.37426,    0.29220,5
420.39,  131.205,    -0.19791, 16.36535,    0.28704,5
400.176,  132.218,    -0.17849, 16.36436,    0.28082,5
380.08,  133.23,    -0.15513, 16.36931,    0.27365,5
360.391,  134.242,    -0.14437, 16.35940,    0.26574,5
341.486,  135.255,    -0.12308, 16.36535,    0.25741,5
323.548,  136.268,    -0.11337, 16.35842,    0.24890,5
306.609,  137.28,-9.6274e-002, 16.34753,    0.24039,5
290.634,  138.292,-9.2284e-002, 16.35446,    0.23201,5
275.561,  139.305,-6.7459e-002, 16.36535,    0.22382,5
261.314,  140.317,-6.9368e-002, 16.34951,    0.21588,5
247.841,  141.33,-6.4192e-002, 16.35941,    0.20822,5
235.112,  142.343,-4.2510e-002, 16.35050,    0.20089,5
223.052,  143.355,-2.0428e-002, 16.35941,    0.19387,5
211.621,  144.367, 1.5869e-002, 16.36139,    0.18718,5
200.794,  145.38, 2.6009e-002, 16.35941,    0.18082,5
190.517,  146.393, 4.1070e-002, 16.35842,    0.17478,5
180.784,  147.405, 7.1737e-002, 16.36337,    0.16907,5
171.59,  148.417, 8.5432e-002, 16.35446,    0.16370,5
162.871,  149.43,     0.10845, 16.37327,    0.15863,5
154.626,  150.442,     0.12629, 16.37030,    0.15386,5
153.929,  150.53,     0.12985, 16.36931,    0.15346,5